Date and Time:                Fri Apr 13 12:29:58.371 2018
Software Version:             4.30.30034.0
Temperature (C):              -30
Model:                        DH334T-18U-03
Data Type:                    Counts
Acquisition Mode:             Accumulate
Trigger Mode:                 Internal
Exposure Time (secs):         0.5
Accumulate Cycle Time (secs): 0.5
Frequency (Hz):               2
Number of Accumulations:      1
Readout Mode:                 Full Vertical Binning
Horizontal binning:           1
Extended Dynamic Range:       off
Horizontally flipped:         true
Vertical Shift Speed (usecs): 6.5
Pixel Readout Rate (MHz):     0.05
Clock Amplitude:              Normal
Serial Number:                5999
Pre-Amplifier Gain:           1.000000
Intelligate:                  off
Insertion delay:              normal
Gain level:                   500
Integrate on chip:            off
PIV Mode:                     off
Gate Mode:                    Fire only
Gate Width (nsecs):           0
Gate Delay (nsecs):           0
Spurious Noise Filter Mode:   No Filter
Photon counted:               false
Data Averaging Filter Mode:   No Filter
SR750:
Serial Number:                SR-1311
Wavelength (nm):              459.992
Grating Groove Density (l/mm):1199.66
Grating Blaze:                500
Output Flipper Port:          Direct
Accessory Output Port 1:      Off
Accessory Output Port 2:      Off
Accessory Output Port 3:      Off
Accessory Input Port:         On



400	1.20307
400.01584	587.121
400.03168	587.432
400.04752	587.273
400.06335	588.29
400.07919	591.706
400.09503	593.183
400.11087	591.396
400.12671	590.194
400.14255	591.635
400.15839	594.507
400.17422	591.366
400.19003	588.262
400.20587	593.65
400.22171	599.876
400.23755	599.433
400.25339	600.278
400.26923	606.266
400.28506	604.521
400.3009	596.662
400.31674	592.438
400.33258	591.178
400.34842	587.851
400.36426	585.831
400.3801	588.953
400.39594	588.934
400.41177	589.187
400.42761	592.529
400.44345	589.633
400.45929	582.808
400.47513	580.268
400.49097	579.704
400.50681	578.065
400.52264	577.438
400.53848	583.568
400.55432	591.177
400.57016	590.186
400.58597	589.289
400.60181	595.42
400.61765	599.065
400.63348	597.542
400.64932	592.818
400.66516	591.297
400.681	591.395
400.69684	587.417
400.71268	587.176
400.72852	589.074
400.74435	590.239
400.76019	595.573
400.77603	592.977
400.79187	591.378
400.80771	597.862
400.82355	604.661
400.83939	604.5
400.85522	602.81
400.87106	601.188
400.8869	598.945
400.90274	598.69
400.91858	593.886
400.93442	584.902
400.95026	580.942
400.96609	582.364
400.9819	584.374
400.99774	586.906
401.01358	597.7
401.02942	607.618
401.04526	599.019
401.0611	589.456
401.07693	590.862
401.09277	594.818
401.10861	597.264
401.12445	596.922
401.14029	597.248
401.15613	599.524
401.17197	603.365
401.18781	608.663
401.20364	611.848
401.21948	608.333
401.23532	599.334
401.25116	592.593
401.267	594.529
401.28284	598.329
401.29868	592.655
401.31451	588.599
401.33035	592.616
401.34619	592.286
401.36203	590.367
401.37784	590.686
401.39368	592.56
401.40952	595.202
401.42535	594.535
401.44119	590.12
401.45703	590.058
401.47287	589.781
401.48871	584.977
401.50455	586.369
401.52039	590.834
401.53622	590.492
401.55206	589.748
401.5679	584.726
401.58374	581.62
401.59958	587.898
401.61542	594.79
401.63126	596.27
401.64709	596.864
401.66293	600.959
401.67877	605.015
401.69461	608.07
401.71045	608.691
401.72629	607.34
401.74213	606.253
401.75797	604.294
401.77377	606.677
401.78961	606.352
401.80545	605.109
401.82129	602.685
401.83713	598.658
401.85297	599.708
401.8688	602.781
401.88464	603.086
401.90048	601.061
401.91632	596.629
401.93216	589.609
401.948	588.857
401.96384	596.495
401.97968	604.172
401.99551	606.794
402.01135	604.2
402.02719	597.638
402.04303	590.47
402.05887	586.921
402.07471	593.35
402.09055	597.938
402.10638	595.453
402.12222	597.439
402.13806	601.12
402.1539	601.787
402.16971	602.795
402.18555	603.424
402.20139	599.205
402.21722	594.247
402.23306	593.46
402.2489	601.374
402.26474	606.321
402.28058	597.032
402.29642	591.733
402.31226	594.454
402.32809	598.317
402.34393	592.775
402.35977	586.97
402.37561	590.423
402.39145	594.646
402.40729	594.436
402.42313	596.454
402.43896	603.367
402.4548	600.411
402.47064	592.441
402.48648	585.535
402.50232	582.717
402.51816	585.4
402.534	589.205
402.54984	595.737
402.56564	602.372
402.58148	615.327
402.59732	621.794
402.61316	610.038
402.629	598.288
402.64484	596.776
402.66068	602.039
402.67651	603.958
402.69235	598.468
402.70819	595.498
402.72403	601
402.73987	606.053
402.75571	607.696
402.77155	605.728
402.78738	602.312
402.80322	603.295
402.81906	601.937
402.8349	596.928
402.85074	589.811
402.86658	584.155
402.88242	581.505
402.89825	581.071
402.91409	579.5
402.92993	580.247
402.94577	590.747
402.96158	602.437
402.97742	603.292
402.99326	596.337
403.00909	594.965
403.02493	593.171
403.04077	589.095
403.05661	583.432
403.07245	588.202
403.08829	595.691
403.10413	594.231
403.11996	594.197
403.1358	595.192
403.15164	596.622
403.16748	599.496
403.18332	599.829
403.19916	601.006
403.215	607.209
403.23083	610.651
403.24667	608.324
403.26251	603.179
403.27835	594.228
403.29419	582.841
403.31003	577.835
403.32587	582.223
403.34171	586.045
403.35751	586.287
403.37335	590.63
403.38919	600.98
403.40503	605.938
403.42087	602.352
403.43671	596.359
403.45255	593.416
403.46838	595.229
403.48422	600.725
403.50006	603.29
403.5159	599.757
403.53174	594.353
403.54758	592.559
403.56342	590.909
403.57925	589.364
403.59509	587.818
403.61093	587.873
403.62677	594.32
403.64261	598.596
403.65845	596.187
403.67429	597.083
403.69012	600.317
403.70596	598.886
403.7218	595.387
403.73764	594.444
403.75345	599.07
403.76929	603.421
403.78513	594.119
403.80096	592.93
403.8168	598.193
403.83264	603.908
403.84848	604.47
403.86432	599.287
403.88016	595.88
403.896	595.746
403.91183	593.272
403.92767	589.413
403.94351	588.246
403.95935	589.997
403.97519	591.935
403.99103	596.743
404.00687	595.441
404.02271	588.359
404.03854	588.829
404.05438	590.197
404.07022	593.008
404.08606	594.753
404.1019	593.063
404.11774	593.5
404.13358	591.831
404.14938	590.955
404.16522	599.102
404.18106	604.896
404.1969	602.023
404.21274	597.787
404.22858	596.715
404.24442	598.653
404.26025	598.829
404.27609	597.68
404.29193	604.662
404.30777	609.54
404.32361	603.728
404.33945	598.678
404.35529	596.588
404.37112	597.059
404.38696	598.686
404.4028	598.841
404.41864	599.905
404.43448	601.55
404.45032	603.47
404.46616	609.203
404.48199	615.754
404.49783	614.984
404.51367	616.463
404.52951	619.011
404.54532	615.811
404.56116	617.443
404.577	621.029
404.59283	617.924
404.60867	612.862
404.62451	612.239
404.64035	614.735
404.65619	615.306
404.67203	611.402
404.68787	608.494
404.7037	611.078
404.71954	614.097
404.73538	610.317
404.75122	605.7
404.76706	604.3
404.7829	602.133
404.79874	598.116
404.81458	596.131
404.83041	598.018
404.84625	599.209
404.86209	595.677
404.87793	593.695
404.89377	595.053
404.90961	594.802
404.92545	591.898
404.94125	589.699
404.95709	589.17
404.97293	589.594
404.98877	590.07
405.00461	590.146
405.02045	590.269
405.03629	596.566
405.05212	609.873
405.06796	617.922
405.0838	622.327
405.09964	620.052
405.11548	611.324
405.13132	606.227
405.14716	607.6
405.16299	610.446
405.17883	609.582
405.19467	604.715
405.21051	602.773
405.22635	602.044
405.24219	600.866
405.25803	605.182
405.27386	608.128
405.2897	603.656
405.30554	600.283
405.32138	601.849
405.33719	604.001
405.35303	604.857
405.36887	609.199
405.3847	615.691
405.40054	614.486
405.41638	603.523
405.43222	598.391
405.44806	601.002
405.4639	607.98
405.47974	614.154
405.49557	613.018
405.51141	610.35
405.52725	611.347
405.54309	607.365
405.55893	600.187
405.57477	597.13
405.59061	601.263
405.60645	606.127
405.62228	605.458
405.63812	601.861
405.65396	601.191
405.6698	604.392
405.68564	606.91
405.70148	607.984
405.71732	609.439
405.73312	609.414
405.74896	606.69
405.7648	604.176
405.78064	604.43
405.79648	602.362
405.81232	597.393
405.82816	593.989
405.84399	597.805
405.85983	605.189
405.87567	610.298
405.89151	611.654
405.90735	610.508
405.92319	608.596
405.93903	605.024
405.95486	599.076
405.9707	599.37
405.98654	603.135
406.00238	600.39
406.01822	593.948
406.03406	594.299
406.0499	597.326
406.06573	600.655
406.08157	608.995
406.09741	612.198
406.11325	612.302
406.12906	616.535
406.1449	618.586
406.16074	616.168
406.17657	612.891
406.19241	614.966
406.20825	620.145
406.22409	620.474
406.23993	617.472
406.25577	617.879
406.27161	619.952
406.28745	619.664
406.30328	619.633
406.31912	618.557
406.33496	613.845
406.3508	609.95
406.36664	607.266
406.38248	603.836
406.39832	601.448
406.41415	601.86
406.42999	608.789
406.44583	618.981
406.46167	620.302
406.47751	617.66
406.49335	617.463
406.50919	613.126
406.52499	608.502
406.54083	605.644
406.55667	606.223
406.57251	608.957
406.58835	607.227
406.60419	603.667
406.62003	607.263
406.63586	611.551
406.6517	607.324
406.66754	601.371
406.68338	599.628
406.69922	602.118
406.71506	605.289
406.7309	608.453
406.74673	606.165
406.76257	607.471
406.77841	614.859
406.79425	620.779
406.81009	625.959
406.82593	629.127
406.84177	632.136
406.8576	635.91
406.87344	633.849
406.88928	630.21
406.90512	626.933
406.92093	624.383
406.93677	620.72
406.95261	614.298
406.96844	611.497
406.98428	613.657
407.00012	618.29
407.01596	621.504
407.0318	621.845
407.04764	629.127
407.06348	641.355
407.07932	648.91
407.09515	642.181
407.11099	631.431
407.12683	624.843
407.14267	624.634
407.15851	626.342
407.17435	623.303
407.19019	619.891
407.20602	621.18
407.22186	622.906
407.2377	626.339
407.25354	633.551
407.26938	633.591
407.28522	624.662
407.30106	616.672
407.31686	605.924
407.3327	596.091
407.34854	591.309
407.36438	591.172
407.38022	598.178
407.39606	606.681
407.4119	612.952
407.42773	612.928
407.44357	615.037
407.45941	619.134
407.47525	619.692
407.49109	625.45
407.50693	628.873
407.52277	626.798
407.5386	622.162
407.55444	626.636
407.57028	629.522
407.58612	627.677
407.60196	630.365
407.6178	630.303
407.63364	624.15
407.64948	623.998
407.66531	628.065
407.68115	626.413
407.69699	619.575
407.7128	615.29
407.72864	613.678
407.74448	614.397
407.76031	610.53
407.77615	604.169
407.79199	607.724
407.80783	617.698
407.82367	625.376
407.83951	629.876
407.85535	632.247
407.87119	630.791
407.88702	630.37
407.90286	632.833
407.9187	635.804
407.93454	640.754
407.95038	649.626
407.96622	653.548
407.98206	650.154
407.99789	642.203
408.01373	624.925
408.02957	615.06
408.04541	610.955
408.06125	607.946
408.07709	612.393
408.09293	621.445
408.10873	626.693
408.12457	626.093
408.14041	623.317
408.15625	621.77
408.17209	628.384
408.18793	640.023
408.20377	645.622
408.2196	641.887
408.23544	633.327
408.25128	623.723
408.26712	620.648
408.28296	618.242
408.2988	612.856
408.31464	612.203
408.33047	611.182
408.34631	607.344
408.36215	608.198
408.37799	610.894
408.39383	611.553
408.40967	616.726
408.42551	623.922
408.44135	626.923
408.45718	625.653
408.47302	621.411
408.48886	623.624
408.50467	636.198
408.52051	644.651
408.53635	638.846
408.55219	626.326
408.56802	614.955
408.58386	609.132
408.5997	607.032
408.61554	607.387
408.63138	615.934
408.64722	626.083
408.66306	627.257
408.67889	627.547
408.69473	636.129
408.71057	638.987
408.72641	631.634
408.74225	622.864
408.75809	620.499
408.77393	625.027
408.78976	625.433
408.8056	615.741
408.82144	612.676
408.83728	614.058
408.85312	615.886
408.86896	610.935
408.8848	610.705
408.9006	615.25
408.91644	613.518
408.93228	614.423
408.94812	621.234
408.96396	625.336
408.9798	626.31
408.99564	626.784
409.01147	623.457
409.02731	619.749
409.04315	620.552
409.05899	628.588
409.07483	634.928
409.09067	629.451
409.10651	621.425
409.12234	621.484
409.13818	624.958
409.15402	626.507
409.16986	621.199
409.1857	619.925
409.20154	624.85
409.21738	625.997
409.23322	628.022
409.24905	633.989
409.26489	637.624
409.28073	633.947
409.29654	630.663
409.31238	634.414
409.32822	632.499
409.34406	631.003
409.35989	633.292
409.37573	633.156
409.39157	628.321
409.40741	621.969
409.42325	620.005
409.43909	620.783
409.45493	617.224
409.47076	610.225
409.4866	608.42
409.50244	616.137
409.51828	629.262
409.53412	639.041
409.54996	643.978
409.5658	650.035
409.58163	651.487
409.59747	644.608
409.61331	641.165
409.62915	639.93
409.64499	641.271
409.66083	638.716
409.67667	634.368
409.69247	637.387
409.70831	638.523
409.72415	631.543
409.73999	630.924
409.75583	638.826
409.77167	647.467
409.78751	651.989
409.80334	650.082
409.81918	647.262
409.83502	647.621
409.85086	646.075
409.8667	641.555
409.88254	636.295
409.89838	626.466
409.91422	618.461
409.93005	620.028
409.94589	628.163
409.96173	635.437
409.97757	640.756
409.99341	643.214
410.00925	637.561
410.02509	631.245
410.04092	635.202
410.05676	642.194
410.0726	639.808
410.08841	630.088
410.10425	626.34
410.12009	625.099
410.13593	625.275
410.15176	630.773
410.1676	636.229
410.18344	637.418
410.19928	631.448
410.21512	622.312
410.23096	619.229
410.2468	619.196
410.26263	617.066
410.27847	613.105
410.29431	607.735
410.31015	602.409
410.32599	598.002
410.34183	598.961
410.35767	602.082
410.3735	610.367
410.38934	621.53
410.40518	635.227
410.42102	646.842
410.43686	648.633
410.4527	637.663
410.46854	627.691
410.48434	625.017
410.50018	626.379
410.51602	626.328
410.53186	630.865
410.5477	636.335
410.56354	642.694
410.57938	657.221
410.59521	669.073
410.61105	665.494
410.62689	649.832
410.64273	636.355
410.65857	635.817
410.67441	640.164
410.69025	635.767
410.70609	628.401
410.72192	627.073
410.73776	626.905
410.7536	635.068
410.76944	650.305
410.78528	660.762
410.80112	669.147
410.81696	671.918
410.83279	671.916
410.84863	673.298
410.86447	665.705
410.88028	654.245
410.89612	645.196
410.91196	640.885
410.9278	639.682
410.94363	641.677
410.95947	641.388
410.97531	639.949
410.99115	650.178
411.00699	667.557
411.02283	670.507
411.03867	664.583
411.0545	656.194
411.07034	641.942
411.08618	637.345
411.10202	633.611
411.11786	635.708
411.1337	648.545
411.14954	663.147
411.16537	663.321
411.18121	657.237
411.19705	655.188
411.21289	650.296
411.22873	640.773
411.24457	637.242
411.26041	640.116
411.27621	639.191
411.29205	634.571
411.30789	638.76
411.32373	643.549
411.33957	647.975
411.35541	648.977
411.37125	643.516
411.38708	636.299
411.40292	627.415
411.41876	630.102
411.4346	637.435
411.45044	638.344
411.46628	638.931
411.48212	645.032
411.49796	647.672
411.51379	650.156
411.52963	657.756
411.54547	664.27
411.56131	662.47
411.57715	660.123
411.59299	662.562
411.60883	653.153
411.62466	641.611
411.6405	636.608
411.65634	639.708
411.67215	645.492
411.68799	643.776
411.70383	642.113
411.71967	643.885
411.7355	643.418
411.75134	646.062
411.76718	648.351
411.78302	651.744
411.79886	663.988
411.8147	667.661
411.83054	658.576
411.84637	647.146
411.86221	642.067
411.87805	639.092
411.89389	641.513
411.90973	650.18
411.92557	647.656
411.94141	640.38
411.95724	643.822
411.97308	650.8
411.98892	651.109
412.00476	651.436
412.0206	656.057
412.03644	659.752
412.05228	653.662
412.06808	647.793
412.08392	646.723
412.09976	641.667
412.1156	637.591
412.13144	638.41
412.14728	639.945
412.16312	639.81
412.17896	649.696
412.19479	661.166
412.21063	661.523
412.22647	656.079
412.24231	648.67
412.25815	644.104
412.27399	639.35
412.28983	631.27
412.30566	632.626
412.3215	643.69
412.33734	654.849
412.35318	661.253
412.36902	658.46
412.38486	651.448
412.4007	645.469
412.41653	638.488
412.43237	626.831
412.44821	613.011
412.46402	605.984
412.47986	605.174
412.4957	610.992
412.51154	617.416
412.52737	619.024
412.54321	618.366
412.55905	623.762
412.57489	626.601
412.59073	621.519
412.60657	610.466
412.62241	605.04
412.63824	601.068
412.65408	593.156
412.66992	586.442
412.68576	588.089
412.7016	593.738
412.71744	596.688
412.73328	595.21
412.74911	591.214
412.76495	587.01
412.78079	583.86
412.79663	587.498
412.81247	602.204
412.82831	608.238
412.84415	605.057
412.85995	600.946
412.87579	604.328
412.89163	613.022
412.90747	610.476
412.92331	603.781
412.93915	601.371
412.95499	603.155
412.97083	607.169
412.98666	608.067
413.0025	606.24
413.01834	602.679
413.03418	602.623
413.05002	605.51
413.06586	602.02
413.0817	594.405
413.09753	590.733
413.11337	591.356
413.12921	596.148
413.14505	603.754
413.16089	608.77
413.17673	607.458
413.19257	604.374
413.2084	601.775
413.22424	603.672
413.24008	609.042
413.25589	609.063
413.27173	607.415
413.28757	610.352
413.30341	606.974
413.31924	602.253
413.33508	603.959
413.35092	606.179
413.36676	602.184
413.3826	601.748
413.39844	604.042
413.41428	598.965
413.43011	594.353
413.44595	597.265
413.46179	601.079
413.47763	603.83
413.49347	602.622
413.50931	599.851
413.52515	598.507
413.54099	595.456
413.55682	593.905
413.57266	596.163
413.5885	601.818
413.60434	599.706
413.62018	598.265
413.63602	604.009
413.65182	607.124
413.66766	607.35
413.6835	604.791
413.69934	602.487
413.71518	608.293
413.73102	611.462
413.74686	612.501
413.7627	612.003
413.77853	603.869
413.79437	598.142
413.81021	596.879
413.82605	590.671
413.84189	587.662
413.85773	594.164
413.87357	596.966
413.8894	596.913
413.90524	603.359
413.92108	610.123
413.93692	602.844
413.95276	591.213
413.9686	589.467
413.98444	596.242
414.00027	603.945
414.01611	610.439
414.03195	611.066
414.04776	604.759
414.0636	600.753
414.07944	600.946
414.09528	601.235
414.11111	605.995
414.12695	607.358
414.14279	601.273
414.15863	598.189
414.17447	597.565
414.19031	596.476
414.20615	595.677
414.22198	591.86
414.23782	587.403
414.25366	586.773
414.2695	590.68
414.28534	599.075
414.30118	608.364
414.31702	618.769
414.33286	619.083
414.34869	614.616
414.36453	613.815
414.38037	610.39
414.39621	612.772
414.41205	610.824
414.42789	601.716
414.44373	593.989
414.45953	593.326
414.47537	597.98
414.49121	599.259
414.50705	597.957
414.52289	599.138
414.53873	602.489
414.55457	606.44
414.5704	606.43
414.58624	599.231
414.60208	594.387
414.61792	596.397
414.63376	600.172
414.6496	599.987
414.66544	599.78
414.68127	601.831
414.69711	603.68
414.71295	606.713
414.72879	607.24
414.74463	600.094
414.76047	600.205
414.77631	606.023
414.79214	605.794
414.80798	601.871
414.82382	601.739
414.83966	599.529
414.85547	594.21
414.87131	592.535
414.88715	596.336
414.90298	600.46
414.91882	605.703
414.93466	608.305
414.9505	605.054
414.96634	600.539
414.98218	598.602
414.99802	597.239
415.01385	595.732
415.02969	596.378
415.04553	595.199
415.06137	594.261
415.07721	595.982
415.09305	594.239
415.10889	590.053
415.12473	588.441
415.14056	590.485
415.1564	593.931
415.17224	593.88
415.18808	590.465
415.20392	589.52
415.21976	591.096
415.2356	596.3
415.2514	604.004
415.26724	605.618
415.28308	601.905
415.29892	595.835
415.31476	590.214
415.3306	591.578
415.34644	598.948
415.36227	604.485
415.37811	600.747
415.39395	595.521
415.40979	592.667
415.42563	589.57
415.44147	586.518
415.45731	586.117
415.47314	588.351
415.48898	594.432
415.50482	600.255
415.52066	599.531
415.5365	595.007
415.55234	595.601
415.56818	603.913
415.58401	604.449
415.59985	599.737
415.61569	598.382
415.63153	594.317
415.64734	587.761
415.66318	594.705
415.67902	604.407
415.69485	606.607
415.71069	607.327
415.72653	605.654
415.74237	594.701
415.75821	585.125
415.77405	582.776
415.78989	584.257
415.80573	588.789
415.82156	591.839
415.8374	592.115
415.85324	590.014
415.86908	591.831
415.88492	598.187
415.90076	598.486
415.9166	592.095
415.93243	592.58
415.94827	598.879
415.96411	608.877
415.97995	617.985
415.99579	616.064
416.01163	610.049
416.02747	604.884
416.04327	597.942
416.05911	592.568
416.07495	590.046
416.09079	591.273
416.10663	593.669
416.12247	590.486
416.13831	588.267
416.15414	588.674
416.16998	592.778
416.18582	599.71
416.20166	602.746
416.2175	601.671
416.23334	598.397
416.24918	601.205
416.26501	600.641
416.28085	594.133
416.29669	600.14
416.31253	609.367
416.32837	613.687
416.34421	612.175
416.36005	607.367
416.37589	603.841
416.39172	605.392
416.40756	606.443
416.4234	606.61
416.43921	606.683
416.45505	603.608
416.47089	599.856
416.48672	598.041
416.50256	595.306
416.5184	593.305
416.53424	594.928
416.55008	595.698
416.56592	597.373
416.58176	602.785
416.5976	607.441
416.61343	607.621
416.62927	606.626
416.64511	602.571
416.66095	594.254
416.67679	587.949
416.69263	587.321
416.70847	591.13
416.7243	595.487
416.74014	596.307
416.75598	594.704
416.77182	595.584
416.78766	594.535
416.8035	591.759
416.81934	591.944
416.83514	590.767
416.85098	593.244
416.86682	596.439
416.88266	596.468
416.8985	597.358
416.91434	596.092
416.93018	594.811
416.94601	593.833
416.96185	593.645
416.97769	592.534
416.99353	590.771
417.00937	594.84
417.02521	597.08
417.04105	596.803
417.05688	596.738
417.07272	600.171
417.08856	604.17
417.1044	610.522
417.12024	616.24
417.13608	615.571
417.15192	611.779
417.16776	610.299
417.18359	611.422
417.19943	610.526
417.21527	606.191
417.23108	605.956
417.24692	607.576
417.26276	608.136
417.27859	608.554
417.29443	604.025
417.31027	600.247
417.32611	602.43
417.34195	604.529
417.35779	603.575
417.37363	601.993
417.38947	600.942
417.4053	599.432
417.42114	596.05
417.43698	591.583
417.45282	589.699
417.46866	591.955
417.4845	596.282
417.50034	601.711
417.51617	606.213
417.53201	610.008
417.54785	608.434
417.56369	602.296
417.57953	597.444
417.59537	599.541
417.61121	606.022
417.62701	612.935
417.64285	613.478
417.65869	608.445
417.67453	604.773
417.69037	605.323
417.70621	606.44
417.72205	607.778
417.73788	608.537
417.75372	608.206
417.76956	608.934
417.7854	609.714
417.80124	611.562
417.81708	611.982
417.83292	606.692
417.84875	600.926
417.86459	599.28
417.88043	603.112
417.89627	606.307
417.91211	606.584
417.92795	608.927
417.94379	609.536
417.95963	605.454
417.97546	600.674
417.9913	600.012
418.00714	603.519
418.02295	609.936
418.03879	618.156
418.05463	620.462
418.07047	613.156
418.0863	606.884
418.10214	606.245
418.11798	609.707
418.13382	611.667
418.14966	610.984
418.1655	609.678
418.18134	609.949
418.19717	612.432
418.21301	612.804
418.22885	607.729
418.24469	602.935
418.26053	603.409
418.27637	607.911
418.29221	612.66
418.30804	612.409
418.32388	609.876
418.33972	610.913
418.35556	608.941
418.3714	602.439
418.38724	601.463
418.40308	606.097
418.41888	607.936
418.43472	610.73
418.45056	616.741
418.4664	617.685
418.48224	609.602
418.49808	610.164
418.51392	623.631
418.52975	633.214
418.54559	635.977
418.56143	633.263
418.57727	629.792
418.59311	625.647
418.60895	621.619
418.62479	621.933
418.64063	623.476
418.65646	620.013
418.6723	612.115
418.68814	603.513
418.70398	599.317
418.71982	601.728
418.73566	609.693
418.7515	612.212
418.76733	607.974
418.78317	606.165
418.79901	611.89
418.81482	614.576
418.83066	606.497
418.8465	601.924
418.86234	609.351
418.87817	619.159
418.89401	626.217
418.90985	627.288
418.92569	623.264
418.94153	619.544
418.95737	620.169
418.97321	622.409
418.98904	624.517
419.00488	629.522
419.02072	632.766
419.03656	627.251
419.0524	621.777
419.06824	624.063
419.08408	626.313
419.09991	626.879
419.11575	628.881
419.13159	631.175
419.14743	635.307
419.16327	632.07
419.17911	623.048
419.19495	617.255
419.21075	614.878
419.22659	612.354
419.24243	612.09
419.25827	611.055
419.27411	613.015
419.28995	619.67
419.30579	617.036
419.32162	614.248
419.33746	627.424
419.3533	632.887
419.36914	634.008
419.38498	632.36
419.40082	625.953
419.41666	619.428
419.4325	614.345
419.44833	614.127
419.46417	619.205
419.48001	622.005
419.49585	619.532
419.51169	615.19
419.52753	612.267
419.54337	612.315
419.5592	610.901
419.57504	607.754
419.59088	606.562
419.60669	602.947
419.62253	595.211
419.63837	594.4
419.65421	604.979
419.67004	608.557
419.68588	609.274
419.70172	608.857
419.71756	602.981
419.7334	595.274
419.74924	589.836
419.76508	592.219
419.78091	598.588
419.79675	601.712
419.81259	601.934
419.82843	601.152
419.84427	607.895
419.86011	614.266
419.87595	611.316
419.89178	607.795
419.90762	609.209
419.92346	610.478
419.9393	612.553
419.95514	614.837
419.97098	614.534
419.98682	614.413
420.00262	613.099
420.01846	611.348
420.0343	613.791
420.05014	612.806
420.06598	606.029
420.08182	606.296
420.09766	610.589
420.11349	609.142
420.12933	612.16
420.14517	619.084
420.16101	619.998
420.17685	615.448
420.19269	614.594
420.20853	615.18
420.22437	616.905
420.2402	624.203
420.25604	625.475
420.27188	619.696
420.28772	619.24
420.30356	617.061
420.3194	614.869
420.33524	615.436
420.35107	608.729
420.36691	601.569
420.38275	603.475
420.39856	606.86
420.4144	605.84
420.43024	602.89
420.44608	598.173
420.46191	597.458
420.47775	600.758
420.49359	604.612
420.50943	606.565
420.52527	610.054
420.54111	619.524
420.55695	620.468
420.57278	611.588
420.58862	607.944
420.60446	605.836
420.6203	598.747
420.63614	597.414
420.65198	601.826
420.66782	606.24
420.68365	610.25
420.69949	611.066
420.71533	609.158
420.73117	606.794
420.74701	612.69
420.76285	618.882
420.77869	616.117
420.79449	610.427
420.81033	609.743
420.82617	620.314
420.84201	620.701
420.85785	612.487
420.87369	609.799
420.88953	611.779
420.90536	613.571
420.9212	617.089
420.93704	620.156
420.95288	620.376
420.96872	615.45
420.98456	613.742
421.0004	620.277
421.01624	628.442
421.03207	626.365
421.04791	616.062
421.06375	616.666
421.07959	616.832
421.09543	613.707
421.11127	617.904
421.12711	613.673
421.14294	604.009
421.15878	606.3
421.17462	615.369
421.19043	615.521
421.20627	609.275
421.22211	609.199
421.23795	616.817
421.25378	626.268
421.26962	633.743
421.28546	637.348
421.3013	635.169
421.31714	627.133
421.33298	616.935
421.34882	609.655
421.36465	604.98
421.38049	605.744
421.39633	613.134
421.41217	614.928
421.42801	612.239
421.44385	612.479
421.45969	610.803
421.47552	611.921
421.49136	614.778
421.5072	612.293
421.52304	611.765
421.53888	613.35
421.55472	609.358
421.57056	600.119
421.58636	595.003
421.6022	598.232
421.61804	602.223
421.63388	606.68
421.64972	613.589
421.66556	622.341
421.6814	627.011
421.69724	619.978
421.71307	607.863
421.72891	608.507
421.74475	613.302
421.76059	608.567
421.77643	597.687
421.79227	593.925
421.80811	601.009
421.82394	607.351
421.83978	607.183
421.85562	608.799
421.87146	605.956
421.8873	603.268
421.90314	607.799
421.91898	616.66
421.93481	620.84
421.95065	618.508
421.96649	615.33
421.9823	611.449
421.99814	608.44
422.01398	608.909
422.02982	608.547
422.04565	602.883
422.06149	597.216
422.07733	592.767
422.09317	588.598
422.10901	601.477
422.12485	607.556
422.14069	605.247
422.15652	606.791
422.17236	606.315
422.1882	604.756
422.20404	602.323
422.21988	599.713
422.23572	600.823
422.25156	599.661
422.2674	596.138
422.28323	594.959
422.29907	597.108
422.31491	597.85
422.33075	594.225
422.34659	592.251
422.36243	595.762
422.37823	604.67
422.39407	611.335
422.40991	611.237
422.42575	606.809
422.44159	605.541
422.45743	606.564
422.47327	606.932
422.48911	606.32
422.50494	606.094
422.52078	608.165
422.53662	606.881
422.55246	606.673
422.5683	606.701
422.58414	604.826
422.59998	602.736
422.61581	593.257
422.63165	586.915
422.64749	587.948
422.66333	588.725
422.67917	589.873
422.69501	593.564
422.71085	597.554
422.72668	601.321
422.74252	604.962
422.75836	607.09
422.77417	608.737
422.79001	615.257
422.80585	619.661
422.82169	614.266
422.83752	610.593
422.85336	610.934
422.8692	606.73
422.88504	602.414
422.90088	602.955
422.91672	601.79
422.93256	598.135
422.94839	595.094
422.96423	593.169
422.98007	589.454
422.99591	588.311
423.01175	593.78
423.02759	598.494
423.04343	595.46
423.05927	591.455
423.0751	592.282
423.09094	595.625
423.10678	596.651
423.12262	595.903
423.13846	594.893
423.1543	594.661
423.1701	599.113
423.18594	602.091
423.20178	600.77
423.21762	599.716
423.23346	599.747
423.2493	597.496
423.26514	599.449
423.28098	602.48
423.29681	597.29
423.31265	593.345
423.32849	593.726
423.34433	592.397
423.36017	591.267
423.37601	596.534
423.39185	604.715
423.40768	606.61
423.42352	603.228
423.43936	597.031
423.4552	592.277
423.47104	593.55
423.48688	600.818
423.50272	605.59
423.51855	600.957
423.53439	592.669
423.55023	590.616
423.56604	595.875
423.58188	597.025
423.59772	592.952
423.61356	591.742
423.62939	591.342
423.64523	596.436
423.66107	608.534
423.67691	610.969
423.69275	606.946
423.70859	601.688
423.72443	596.852
423.74026	600.972
423.7561	612.195
423.77194	610.29
423.78778	601.603
423.80362	599.073
423.81946	600.859
423.8353	604.784
423.85114	600.242
423.86697	595.236
423.88281	596.241
423.89865	595.803
423.91449	598.875
423.93033	605.02
423.94617	606.257
423.96198	607.874
423.97781	609.41
423.99365	605.163
424.00949	599.526
424.02533	598.275
424.04117	596.47
424.05701	591.527
424.07285	589.754
424.08868	590.924
424.10452	597.446
424.12036	603.969
424.1362	604.444
424.15204	604.208
424.16788	601.734
424.18372	600.529
424.19955	601.192
424.21539	602.796
424.23123	602.608
424.24707	601.405
424.26291	602.611
424.27875	601.235
424.29459	604.997
424.31042	609.751
424.32626	611.132
424.3421	609.869
424.35791	605.778
424.37375	604.987
424.38959	611.35
424.40543	611.634
424.42126	606.672
424.4371	604.06
424.45294	601.923
424.46878	600.967
424.48462	599.427
424.50046	594.173
424.5163	588.669
424.53214	581.433
424.54797	577.667
424.56381	588.052
424.57965	598.837
424.59549	598.509
424.61133	594.656
424.62717	590.844
424.64301	588.084
424.65884	589.567
424.67468	597.751
424.69052	603.541
424.70636	604.998
424.7222	610.627
424.73804	613.21
424.75385	609.18
424.76968	604.64
424.78552	602.324
424.80136	600.256
424.8172	600.259
424.83304	601.309
424.84888	599.052
424.86472	598.152
424.88055	601.565
424.89639	602.655
424.91223	607.941
424.92807	616.39
424.94391	618.396
424.95975	616.363
424.97559	612.454
424.99142	608.731
425.00726	605.892
425.0231	603.471
425.03894	599.766
425.05478	599.828
425.07062	614.258
425.08646	620.89
425.10229	618.453
425.11813	617.495
425.13397	617.114
425.14978	611.875
425.16562	607.508
425.18146	604.25
425.1973	602.085
425.21313	602.64
425.22897	602.964
425.24481	600.946
425.26065	599.022
425.27649	597.538
425.29233	598.688
425.30817	602.999
425.32401	603.244
425.33984	602.318
425.35568	603.418
425.37152	604.398
425.38736	608.699
425.4032	611.276
425.41904	610.069
425.43488	609.17
425.45071	603.825
425.46655	597.877
425.48239	598.401
425.49823	601.703
425.51407	603.299
425.52991	598.741
425.54572	594.647
425.56155	596.046
425.57739	605.389
425.59323	614.52
425.60907	612.977
425.62491	607.505
425.64075	603.5
425.65659	600.506
425.67242	600.292
425.68826	606.034
425.7041	608.737
425.71994	604.962
425.73578	601.003
425.75162	595.399
425.76746	592.837
425.78329	596.557
425.79913	599.503
425.81497	603.522
425.83081	607.619
425.84665	603.73
425.86249	594.295
425.87833	591.251
425.89417	596.173
425.91	601.391
425.92584	607.892
425.94165	610.775
425.95749	603.771
425.97333	594.585
425.98917	595.64
426.005	603.674
426.02084	606.62
426.03668	601.921
426.05252	596.96
426.06836	592.549
426.0842	587.257
426.10004	590.192
426.11588	594.972
426.13171	595.486
426.14755	593.801
426.16339	589.801
426.17923	588.236
426.19507	591.63
426.21091	595.498
426.22675	596.392
426.24258	593.386
426.25842	592.49
426.27426	599.831
426.2901	605.831
426.30594	602.369
426.32178	599.829
426.33759	601.718
426.35342	598.422
426.36926	591.159
426.3851	588.83
426.40094	590.269
426.41678	593.686
426.43262	597.552
426.44846	596.849
426.46429	594.63
426.48013	591.854
426.49597	590.515
426.51181	589.525
426.52765	591.77
426.54349	601.306
426.55933	609.012
426.57516	606.011
426.591	596.514
426.60684	593.87
426.62268	595.626
426.63852	603.953
426.65436	619.283
426.6702	630.873
426.68604	642.57
426.70187	655.494
426.71771	660.754
426.73352	661.636
426.74936	658.653
426.7652	643.87
426.78104	628.294
426.79688	621.534
426.81271	620.888
426.82855	620.399
426.84439	614.127
426.86023	607.062
426.87607	614.113
426.89191	616.472
426.90775	612.386
426.92358	608.965
426.93942	611.72
426.95526	619.565
426.9711	622.33
426.98694	624.528
427.00278	625.736
427.01862	613.173
427.03445	600.756
427.05029	600.365
427.06613	601.866
427.08197	601.166
427.09781	597.153
427.11365	591.921
427.12946	595.331
427.14529	605.324
427.16113	615.325
427.17697	618.776
427.19281	617.124
427.20865	612.922
427.22449	609.281
427.24033	612.472
427.25616	615.852
427.272	610.876
427.28784	600.421
427.30368	596.455
427.31952	596.794
427.33536	599.83
427.3512	604.606
427.36703	609.416
427.38287	614.897
427.39871	615.453
427.41455	613.082
427.43039	610.259
427.44623	609.535
427.46207	616.292
427.47791	619.49
427.49374	621.282
427.50958	624.942
427.52539	629.335
427.54123	629.613
427.55707	623.408
427.57291	615.182
427.58875	609.26
427.60458	608.505
427.62042	614.17
427.63626	620.884
427.6521	617.077
427.66794	606.902
427.68378	602.374
427.69962	599.696
427.71545	599.4
427.73129	604.133
427.74713	614.519
427.76297	621.686
427.77881	619.73
427.79465	613.762
427.81049	607.974
427.82632	602.968
427.84216	606.887
427.858	614.802
427.87384	614.06
427.88968	609.585
427.90552	609.795
427.92133	611.557
427.93716	615.651
427.953	618.193
427.96884	614.511
427.98468	609.648
428.00052	605.753
428.01636	601.302
428.0322	595.481
428.04803	597.499
428.06387	605.685
428.07971	610.174
428.09555	608.627
428.11139	603.71
428.12723	601.2
428.14307	600.024
428.15891	599.713
428.17474	603.249
428.19058	613.212
428.20642	616.101
428.22226	608.391
428.2381	600.826
428.25394	600.394
428.26978	605.112
428.28561	606.987
428.30145	603.372
428.31726	597.345
428.3331	595.224
428.34894	597.15
428.36478	597.919
428.38062	606.925
428.39645	612.73
428.41229	607.544
428.42813	599.95
428.44397	597.011
428.45981	602.426
428.47565	609.286
428.49149	609.956
428.50732	607.362
428.52316	605.714
428.539	608.915
428.55484	612.863
428.57068	616.161
428.58652	613.603
428.60236	605.353
428.61819	600.096
428.63403	600.514
428.64987	599.637
428.66571	593.125
428.68155	590.018
428.69739	589.834
428.7132	591.39
428.72903	595.272
428.74487	599.369
428.76071	603.351
428.77655	603.84
428.79239	600.588
428.80823	598.892
428.82407	597.711
428.8399	596.088
428.85574	597.286
428.87158	595.82
428.88742	594.348
428.90326	600.638
428.9191	608.25
428.93494	608.077
428.95078	605.842
428.96661	611.339
428.98245	621.253
428.99829	625.907
429.01413	623.163
429.02997	619.303
429.04581	618.064
429.06165	619.201
429.07748	617.68
429.09332	616.883
429.10913	609.011
429.12497	604.979
429.14081	609.288
429.15665	610.987
429.17249	608.462
429.18832	606.528
429.20416	604.604
429.22	601.624
429.23584	602.419
429.25168	605.341
429.26752	607.843
429.28336	611.724
429.29919	615.843
429.31503	612.498
429.33087	601.904
429.34671	596.982
429.36255	599.041
429.37839	601.387
429.39423	598.305
429.41006	596.833
429.4259	602.027
429.44174	608.893
429.45758	609.339
429.47342	605.813
429.48926	605.746
429.50507	609.999
429.5209	613.402
429.53674	614.124
429.55258	613.651
429.56842	611.569
429.58426	609.233
429.6001	609.852
429.61594	613.078
429.63177	614.185
429.64761	610.719
429.66345	606.191
429.67929	607.48
429.69513	612.216
429.71097	611.728
429.72681	611.564
429.74265	614.047
429.75848	614.606
429.77432	615.167
429.79016	615.748
429.806	616.382
429.82184	613.668
429.83768	609.421
429.85352	608.429
429.86935	604.706
429.88519	601.903
429.901	603.488
429.91684	605.924
429.93268	607.186
429.94852	608.869
429.96436	608.211
429.98019	608.11
429.99603	608.93
430.01187	610.055
430.02771	613.818
430.04355	617.167
430.05939	616.519
430.07523	615.751
430.09106	613.734
430.1069	610.671
430.12274	611.331
430.13858	609.796
430.15442	610.224
430.17026	612.916
430.1861	616.122
430.20193	619.914
430.21777	620.089
430.23361	614.988
430.24945	616.79
430.26529	621.095
430.28113	619.439
430.29694	616.554
430.31277	617.717
430.32861	620.573
430.34445	616.724
430.36029	605.589
430.37613	600.114
430.39197	604.564
430.40781	613.3
430.42365	614.367
430.43948	612.223
430.45532	608.429
430.47116	605.628
430.487	608.86
430.50284	613.49
430.51868	616.731
430.53452	617.098
430.55035	616.215
430.56619	617.588
430.58203	620.236
430.59787	619.874
430.61371	617.888
430.62955	618.656
430.64539	618.223
430.66122	619.722
430.67706	620.568
430.69287	623.277
430.70871	627.369
430.72455	624.833
430.74039	619.657
430.75623	622.634
430.77206	627.507
430.7879	625.978
430.80374	621.317
430.81958	615.963
430.83542	613.793
430.85126	615.114
430.8671	618.695
430.88293	620.025
430.89877	617.379
430.91461	619.888
430.93045	622.241
430.94629	624.052
430.96213	624.926
430.97797	621.19
430.9938	615.484
431.00964	612.752
431.02548	619.782
431.04132	625.247
431.05716	618.991
431.073	613.37
431.08881	617.987
431.10464	620.909
431.12048	617.999
431.13632	617.68
431.15216	621.607
431.168	633.033
431.18384	638.942
431.19968	635.819
431.21552	633.215
431.23135	631.737
431.24719	626.715
431.26303	618.734
431.27887	613.496
431.29471	611.251
431.31055	608.231
431.32639	608.104
431.34222	617.15
431.35806	636.008
431.3739	647.575
431.38974	643.413
431.40558	641.879
431.42142	632.365
431.43726	621.455
431.45309	617.202
431.46893	618.949
431.48474	619.664
431.50058	618.76
431.51642	617.713
431.53226	616.525
431.5481	618.882
431.56393	621.63
431.57977	618.027
431.59561	611.778
431.61145	602.363
431.62729	597.861
431.64313	604.064
431.65897	609.429
431.6748	611.411
431.69064	613.771
431.70648	618.085
431.72232	618.541
431.73816	615.625
431.754	610.817
431.76984	605.611
431.78568	606.086
431.80151	609.968
431.81735	613.179
431.83319	622.221
431.84903	627.19
431.86487	619.94
431.88068	608.19
431.89651	604.814
431.91235	611.982
431.92819	622.485
431.94403	623.23
431.95987	616.35
431.97571	615.164
431.99155	615.98
432.00739	617.638
432.02322	617.925
432.03906	616.699
432.0549	615.737
432.07074	613.583
432.08658	615.897
432.10242	622.59
432.11826	621.58
432.13409	614.802
432.14993	618.352
432.16577	622.676
432.18161	623.525
432.19745	631.021
432.21329	639.581
432.22913	636.121
432.24496	625.306
432.2608	619.21
432.27661	616.363
432.29245	615.322
432.30829	615.119
432.32413	611.949
432.33997	612.332
432.3558	616.232
432.37164	618.768
432.38748	612.232
432.40332	606.775
432.41916	612.167
432.435	614.962
432.45084	616.014
432.46667	613.455
432.48251	607.997
432.49835	608.934
432.51419	611.07
432.53003	610.633
432.54587	612.337
432.56171	613.982
432.57755	617.457
432.59338	623.418
432.60922	627.468
432.62506	627.811
432.6409	629.989
432.65674	631.484
432.67255	633.698
432.68839	632.711
432.70422	633.226
432.72006	636.214
432.7359	633.331
432.75174	623.622
432.76758	617.422
432.78342	617.89
432.79926	617.263
432.81509	612.228
432.83093	608.636
432.84677	619.181
432.86261	633.3
432.87845	634.239
432.89429	630.721
432.91013	628.576
432.92596	626.903
432.9418	627.907
432.95764	629.281
432.97348	629.957
432.98932	638.257
433.00516	638.83
433.021	631.929
433.03683	630.527
433.05267	637.966
433.06848	645.291
433.08432	647.107
433.10016	640.133
433.116	632.374
433.13184	629.629
433.14767	625.297
433.16351	622.129
433.17935	626.81
433.19519	631.575
433.21103	629.925
433.22687	623.013
433.24271	618.754
433.25854	618.809
433.27438	622.028
433.29022	625.46
433.30606	624.933
433.3219	622.778
433.33774	625.946
433.35358	629.724
433.36942	627.302
433.38525	627.811
433.40109	634.362
433.41693	641.742
433.43277	643.297
433.44861	640.767
433.46442	634.631
433.48026	633.273
433.49609	636.679
433.51193	634.4
433.52777	630.242
433.54361	627.058
433.55945	628.262
433.57529	632.129
433.59113	635.815
433.60696	634.728
433.6228	632.791
433.63864	632.53
433.65448	633.602
433.67032	633.382
433.68616	628.619
433.702	625.48
433.71783	619.881
433.73367	616.142
433.74951	618.713
433.76535	621.014
433.78119	627.625
433.79703	639.726
433.81287	642.024
433.8287	634.513
433.84454	630.272
433.86035	629.167
433.87619	621.35
433.89203	620.677
433.90787	631.915
433.92371	636.443
433.93954	635.192
433.95538	634.948
433.97122	631.059
433.98706	633.403
434.0029	650.066
434.01874	665.124
434.03458	667.533
434.05042	662.648
434.06625	657.249
434.08209	654.41
434.09793	662.601
434.11377	667.741
434.12961	662.944
434.14545	659.149
434.16129	657.123
434.17712	654.255
434.19296	656.82
434.2088	659.934
434.22464	652.619
434.24048	641.637
434.25629	637.942
434.27213	640.072
434.28796	640.054
434.3038	629.813
434.31964	618.734
434.33548	617.069
434.35132	617.383
434.36716	617.458
434.383	620.478
434.39883	623.435
434.41467	626.806
434.43051	626.802
434.44635	617.721
434.46219	608.665
434.47803	605.959
434.49387	608.9
434.5097	620.155
434.52554	629.166
434.54138	631.553
434.55722	632.74
434.57306	632.438
434.5889	625.768
434.60474	618.114
434.62057	616.704
434.63641	620.082
434.65222	614.224
434.66806	608.029
434.6839	610.726
434.69974	613.096
434.71558	612.609
434.73141	617.562
434.74725	628.31
434.76309	634.895
434.77893	631.44
434.79477	626.221
434.81061	630.983
434.82645	642.408
434.84229	647.426
434.85812	645.662
434.87396	645.458
434.8898	645.557
434.90564	648.973
434.92148	643.494
434.93732	640.001
434.95316	637.244
434.96899	632.286
434.98483	630.546
435.00067	633.093
435.01651	635.636
435.03235	635.27
435.04816	628.372
435.064	619.452
435.07983	617.038
435.09567	619.269
435.11151	628.117
435.12735	636.861
435.14319	640.778
435.15903	651.339
435.17487	653.12
435.1907	643.626
435.20654	640.695
435.22238	642.362
435.23822	638.762
435.25406	634.672
435.2699	635.199
435.28574	634.248
435.30157	632.256
435.31741	631.614
435.33325	625.577
435.34909	620.677
435.36493	622.933
435.38077	621.288
435.39661	615.548
435.41245	618.979
435.42828	628.394
435.44409	635.636
435.45993	641.845
435.47577	651.5
435.49161	661.139
435.50745	661.952
435.52328	653.383
435.53912	639.485
435.55496	629.128
435.5708	628.084
435.58664	630.154
435.60248	626.316
435.61832	622.91
435.63416	620.684
435.64999	618.249
435.66583	624.465
435.68167	631.393
435.69751	633.81
435.71335	640.695
435.72919	652.101
435.74503	661.069
435.76086	666.226
435.7767	679.772
435.79254	701.334
435.80838	729.539
435.82422	760.188
435.84003	771.537
435.85587	768.901
435.8717	744.882
435.88754	702.537
435.90338	659.075
435.91922	631.974
435.93506	621.777
435.9509	617.573
435.96674	615.477
435.98257	621.084
435.99841	634.345
436.01425	643.583
436.03009	650.392
436.04593	664.056
436.06177	679.528
436.07761	680.966
436.09344	664.604
436.10928	647.298
436.12512	629.366
436.14096	613.2
436.1568	606.403
436.17264	598.132
436.18848	593.732
436.20432	599.214
436.22015	608.362
436.23596	618.345
436.2518	627.237
436.26764	632.716
436.28348	638.135
436.29932	641.551
436.31516	643.025
436.33099	648.159
436.34683	649.936
436.36267	646.735
436.37851	643.845
436.39435	638.921
436.41019	629.788
436.42603	622.595
436.44186	617.128
436.4577	620.663
436.47354	624.639
436.48938	629.143
436.50522	634.103
436.52106	634.211
436.5369	631.762
436.55273	633.426
436.56857	633.151
436.58441	631.501
436.60025	635.737
436.61609	639.802
436.6319	643.125
436.64774	638.933
436.66357	629.917
436.67941	634.314
436.69525	637.651
436.71109	635.726
436.72693	637.016
436.74277	641.179
436.75861	642.188
436.77444	635.164
436.79028	630.518
436.80612	638.676
436.82196	650.742
436.8378	658.387
436.85364	654.219
436.86948	648.661
436.88531	644.345
436.90115	638.261
436.91699	640.394
436.93283	641.127
436.94867	633.751
436.96451	630.287
436.98035	627.133
436.99619	628.491
437.01202	631.063
437.02783	634.824
437.04367	638.484
437.05951	638.6
437.07535	640.638
437.09119	644.912
437.10703	650.615
437.12286	652.334
437.1387	648.261
437.15454	645.04
437.17038	643.306
437.18622	647.336
437.20206	642.983
437.2179	633.634
437.23373	630.944
437.24957	635.129
437.26541	639.228
437.28125	641.531
437.29709	650.96
437.31293	661.621
437.32877	663.117
437.3446	655.618
437.36044	644.46
437.37628	639.158
437.39212	634.588
437.40796	628.01
437.42377	624.421
437.43961	627.189
437.45544	638.366
437.47128	650.811
437.48712	653.702
437.50296	655.086
437.5188	658.137
437.53464	656.686
437.55048	651.766
437.56631	651.022
437.58215	645.168
437.59799	637.704
437.61383	641.101
437.62967	648.048
437.64551	646.284
437.66135	638.434
437.67719	635.313
437.69302	636.82
437.70886	636.824
437.7247	638.023
437.74054	639.059
437.75638	636.062
437.77222	629.835
437.78806	626.012
437.80389	625.527
437.8197	626.866
437.83554	629.463
437.85138	634.341
437.86722	642.635
437.88306	652.839
437.8989	652.924
437.91473	642.925
437.93057	639.626
437.94641	638.105
437.96225	636.512
437.97809	632.662
437.99393	633.358
438.00977	634.185
438.0256	630.302
438.04144	622.791
438.05728	617.47
438.07312	620.034
438.08896	626.328
438.1048	627.353
438.12064	626.29
438.13647	629.617
438.15231	635.033
438.16815	636.665
438.18399	630.719
438.19983	619.923
438.21564	612.427
438.23148	618.346
438.24731	628.066
438.26315	629.281
438.27899	625.582
438.29483	629.128
438.31067	643.263
438.32651	649.499
438.34235	643.691
438.35818	636.363
438.37402	638.913
438.38986	641.547
438.4057	636.175
438.42154	634.891
438.43738	640.751
438.45322	645.899
438.46906	646.312
438.48489	648.24
438.50073	652.542
438.51657	650.397
438.53241	638.464
438.54825	634.087
438.56409	632.956
438.57993	630.957
438.59576	630.615
438.61157	634.453
438.62741	641.617
438.64325	639.597
438.65909	632.224
438.67493	628.51
438.69077	624.499
438.7066	623.186
438.72244	622.832
438.73828	620.963
438.75412	621.842
438.76996	624.509
438.7858	628.422
438.80164	631.982
438.81747	631.822
438.83331	625.112
438.84915	615.618
438.86499	613.526
438.88083	612.268
438.89667	606.016
438.91251	608.619
438.92834	613.612
438.94418	617.786
438.96002	618.154
438.97586	622.007
438.9917	625.588
439.00751	624.934
439.02335	622.136
439.03918	616.185
439.05502	611.246
439.07086	609.703
439.0867	610.148
439.10254	617.927
439.11838	624.514
439.13422	619.686
439.15005	618.669
439.16589	617.976
439.18173	614.834
439.19757	618.264
439.21341	623.427
439.22925	622.907
439.24509	624.01
439.26093	631.584
439.27676	637.943
439.2926	632.456
439.30844	618.784
439.32428	613.359
439.34012	610.927
439.35596	604.525
439.3718	597.713
439.38763	595.933
439.40344	603.503
439.41928	613.516
439.43512	608.76
439.45096	602.956
439.4668	597.84
439.48264	594.164
439.49847	595.65
439.51431	598.345
439.53015	603.172
439.54599	607.059
439.56183	607.903
439.57767	607.013
439.59351	606.332
439.60934	607.86
439.62518	609.5
439.64102	613.233
439.65686	614.502
439.6727	614.76
439.68854	616.871
439.70438	616.345
439.72021	620.965
439.73605	620.848
439.75189	611.696
439.76773	604.863
439.78357	604.831
439.79938	607.253
439.81522	607.9
439.83105	608.811
439.84689	609.024
439.86273	604.344
439.87857	597.725
439.89441	597.033
439.91025	599.898
439.92609	593.944
439.94193	591.758
439.95776	597.659
439.9736	602.76
439.98944	605.454
440.00528	609.023
440.02112	612.61
440.03696	606.228
440.0528	594.664
440.06863	591.534
440.08447	595.954
440.10031	600.842
440.11615	603.851
440.13199	608.607
440.14783	607.319
440.16367	603.387
440.1795	611.311
440.19531	614.69
440.21115	614.122
440.22699	613.336
440.24283	612.555
440.25867	609.305
440.27451	607.258
440.29034	608.451
440.30618	607.85
440.32202	606.511
440.33786	606.073
440.3537	607.405
440.36954	608.662
440.38538	606.448
440.40121	601.947
440.41705	602.798
440.43289	607.098
440.44873	607.536
440.46457	605.995
440.48041	602.883
440.49625	600.042
440.51208	599.558
440.52792	600.214
440.54376	598.555
440.5596	599.028
440.57544	605.758
440.59125	612.334
440.60709	614.536
440.62292	613.475
440.63876	613.056
440.6546	612.132
440.67044	608.951
440.68628	605.298
440.70212	602.644
440.71796	604.817
440.7338	612.881
440.74963	617.125
440.76547	620.215
440.78131	619.893
440.79715	614.925
440.81299	606.489
440.82883	603.724
440.84467	608.862
440.8605	606.599
440.87634	602.593
440.89218	603.052
440.90802	605.817
440.92386	610.739
440.9397	613.432
440.95554	611.805
440.97137	608.275
440.98718	608.845
441.00302	613.153
441.01886	614.277
441.0347	613.659
441.05054	614.438
441.06638	616.356
441.08221	616.542
441.09805	615.702
441.11389	619.356
441.12973	626.178
441.14557	627.436
441.16141	624.414
441.17725	624.027
441.19308	628.019
441.20892	634.659
441.22476	635.491
441.2406	632.202
441.25644	635.038
441.27228	635.835
441.28812	634.36
441.30396	637.118
441.31979	638.188
441.33563	632.033
441.35147	627.498
441.36731	628.101
441.38312	626.925
441.39896	628.386
441.41479	634.308
441.43063	639.521
441.44647	639.527
441.46231	638.856
441.47815	633.446
441.49399	623.805
441.50983	616.179
441.52567	612.223
441.5415	612.431
441.55734	618.941
441.57318	626.702
441.58902	627.549
441.60486	628.831
441.6207	635.268
441.63654	638.807
441.65237	637.32
441.66821	633.359
441.68405	636.908
441.69989	645.983
441.71573	646.782
441.73157	642.453
441.74741	635.812
441.76324	626.861
441.77905	622.84
441.79489	622.555
441.81073	624.29
441.82657	626.043
441.84241	622.452
441.85825	617.378
441.87408	616.31
441.88992	613.785
441.90576	609.744
441.9216	605.323
441.93744	604.172
441.95328	608.092
441.96912	616.275
441.98495	626.82
442.00079	633.011
442.01663	633.904
442.03247	637.544
442.04831	636.098
442.06415	625.068
442.07999	615.053
442.09583	610.039
442.11166	609.418
442.1275	612.737
442.14334	609.908
442.15918	612.03
442.17499	622.826
442.19083	625.563
442.20667	626.869
442.2225	629.201
442.23834	630.271
442.25418	633.676
442.27002	639.345
442.28586	644.757
442.3017	647.006
442.31754	648.705
442.33337	647.639
442.34921	640.462
442.36505	630.471
442.38089	616.148
442.39673	609.951
442.41257	612.925
442.42841	615.976
442.44424	621.116
442.46008	621.231
442.47592	621.513
442.49176	628.17
442.5076	638.882
442.52344	648.132
442.53928	659.614
442.55511	663.922
442.57092	657.71
442.58676	649.879
442.6026	647.025
442.61844	650.826
442.63428	657.411
442.65012	656.503
442.66595	645.237
442.68179	625.961
442.69763	619.905
442.71347	622.587
442.72931	628.365
442.74515	624.916
442.76099	616.857
442.77682	616.33
442.79266	622.495
442.8085	624.455
442.82434	625.619
442.84018	628.429
442.85602	630.038
442.87186	630.744
442.8877	629.2
442.90353	632.048
442.91937	637.711
442.93521	636.481
442.95105	634.619
442.96686	633.222
442.9827	631.742
442.99854	630.504
443.01437	629.304
443.03021	631.911
443.04605	631.227
443.06189	628.526
443.07773	627.519
443.09357	638.167
443.10941	651.824
443.12524	652.343
443.14108	644.84
443.15692	636.784
443.17276	629.018
443.1886	618.208
443.20444	611.828
443.22028	615.055
443.23611	621.761
443.25195	623.273
443.26779	620.43
443.28363	622.67
443.29947	626.559
443.31531	624.461
443.33115	621.056
443.34698	618.483
443.36282	615.556
443.37863	611.506
443.39447	612.033
443.41031	619.539
443.42615	625.386
443.44199	630.266
443.45782	625.95
443.47366	617.408
443.4895	612.04
443.50534	610.747
443.52118	614.711
443.53702	624.363
443.55286	632.64
443.5687	636.052
443.58453	643.883
443.60037	650.892
443.61621	650.547
443.63205	647.004
443.64789	636.561
443.66373	624.018
443.67957	612.31
443.6954	605.037
443.71124	608.464
443.72708	619.317
443.74292	630.149
443.75876	632.527
443.77457	625.33
443.79041	618.677
443.80624	618.749
443.82208	618.502
443.83792	617.748
443.85376	624.468
443.8696	634.01
443.88544	639.364
443.90128	637.912
443.91711	632.136
443.93295	632.659
443.94879	632.974
443.96463	630.324
443.98047	627.453
443.99631	633.952
444.01215	649.325
444.02798	647.402
444.04382	635.288
444.05966	636.739
444.0755	648.961
444.09134	649.685
444.10718	636.582
444.12302	631.537
444.13885	635.513
444.15469	630.597
444.1705	622.052
444.18634	622.18
444.20218	622.947
444.21802	623.1
444.23386	621.857
444.24969	621.793
444.26553	623.318
444.28137	632.024
444.29721	643.239
444.31305	649.106
444.32889	650.531
444.34473	652.384
444.36057	654.279
444.3764	643.867
444.39224	632.613
444.40808	628.463
444.42392	628.756
444.43976	620.574
444.4556	616.434
444.47144	628.908
444.48727	644.359
444.50311	649.233
444.51895	650.68
444.53479	646.273
444.55063	632.447
444.56644	620.902
444.58228	616.236
444.59811	613.507
444.61395	615.209
444.62979	620.884
444.64563	626.369
444.66147	630.803
444.67731	634.994
444.69315	636.284
444.70898	641.222
444.72482	649.069
444.74066	654.464
444.7565	658.964
444.77234	659.852
444.78818	659.803
444.80402	664.107
444.81985	658.124
444.83569	646.861
444.85153	642.342
444.86737	640.199
444.88321	637.959
444.89905	632.698
444.91489	625.879
444.93073	623.068
444.94656	623.813
444.96237	621.334
444.97821	620.775
444.99405	620.291
445.00989	616.462
445.02573	617.658
445.04156	623.932
445.0574	622.809
445.07324	615.087
445.08908	612.079
445.10492	614.483
445.12076	620.242
445.1366	631.018
445.15244	642.085
445.16827	648.286
445.18411	653.229
445.19995	663.328
445.21579	670.038
445.23163	662.828
445.24747	649.987
445.26331	638.505
445.27914	632.595
445.29498	630.456
445.31082	630.6
445.32666	631.636
445.3425	629.867
445.35831	631.402
445.37415	627.218
445.38998	616.083
445.40582	613.902
445.42166	619.168
445.4375	619.677
445.45334	622.118
445.46918	622.624
445.48502	622.51
445.50085	627.357
445.51669	632.449
445.53253	643.192
445.54837	652.509
445.56421	653.709
445.58005	648.356
445.59589	644.475
445.61172	642.652
445.62756	640.024
445.6434	643.25
445.65924	659.375
445.67508	669.548
445.69092	665.76
445.70676	658.733
445.7226	647.137
445.73843	629.046
445.75424	618.595
445.77008	625.35
445.78592	630.435
445.80176	630.78
445.8176	626.442
445.83344	625.348
445.84927	624.463
445.86511	616.921
445.88095	616.543
445.89679	631.084
445.91263	646.383
445.92847	652.061
445.94431	657.039
445.96014	665.601
445.97598	669.816
445.99182	660.823
446.00766	644.64
446.0235	631.725
446.03934	626.549
446.05518	627.127
446.07101	627.937
446.08685	623.598
446.10269	618.616
446.11853	615.436
446.13437	611.234
446.15018	613.233
446.16602	620.451
446.18185	621.071
446.19769	617.219
446.21353	615.225
446.22937	617.273
446.24521	623.839
446.26105	629.313
446.27689	632.7
446.29272	643.814
446.30856	656.917
446.3244	663.293
446.34024	666.688
446.35608	670.455
446.37192	669.701
446.38776	659.196
446.40359	646.683
446.41943	637.208
446.43527	626.624
446.45111	621.103
446.46695	619.179
446.48279	619.967
446.49863	620.661
446.51447	619.827
446.5303	626.331
446.54611	637.748
446.56195	638.447
446.57779	628.661
446.59363	629.397
446.60947	635.31
446.62531	639.345
446.64114	652.866
446.65698	672.008
446.67282	682.01
446.68866	682.766
446.7045	682.91
446.72034	675.498
446.73618	665.631
446.75201	653.686
446.76785	638.496
446.78369	628.77
446.79953	626.919
446.81537	624.913
446.83121	620.619
446.84705	621.207
446.86288	621.396
446.87872	623.375
446.89456	618.642
446.9104	610.554
446.92624	614.852
446.94205	627.347
446.95789	639.304
446.97372	640.477
446.98956	650.21
447.0054	669.131
447.02124	682.098
447.03708	681.559
447.05292	672.002
447.06876	666.408
447.08459	653.351
447.10043	633.42
447.11627	621.174
447.13211	619.426
447.14795	625.605
447.16379	626.623
447.17963	631.956
447.19547	638.046
447.2113	637.124
447.22714	637.927
447.24298	638.016
447.25882	632.312
447.27466	628.17
447.2905	633.651
447.30634	650.189
447.32217	668.996
447.33798	680.318
447.35382	676.588
447.36966	665.064
447.3855	657.01
447.40134	650.146
447.41718	640.808
447.43301	625.953
447.44885	615.563
447.46469	608.568
447.48053	606.954
447.49637	613.07
447.51221	616.869
447.52805	619.627
447.54388	619.87
447.55972	620.241
447.57556	625.622
447.5914	633.258
447.60724	646.253
447.62308	656.022
447.63892	660.362
447.65475	661.539
447.67059	657.061
447.68643	647.878
447.70227	640.566
447.71811	639.386
447.73392	638.399
447.74976	634.657
447.76559	631.981
447.78143	626.222
447.79727	619.642
447.81311	623.941
447.82895	630.65
447.84479	633.122
447.86063	637.777
447.87646	642.068
447.8923	646.162
447.90814	655.306
447.92398	661.747
447.93982	667.159
447.95566	673.64
447.9715	671.199
447.98734	656.222
448.00317	640.739
448.01901	632.192
448.03485	626.007
448.05069	622.676
448.06653	627.184
448.08237	635.992
448.09821	639
448.11404	632.047
448.12985	623.143
448.14569	629.953
448.16153	650.906
448.17737	666.321
448.19321	676.673
448.20905	682.713
448.22488	678.557
448.24072	671.306
448.25656	658.852
448.2724	645.192
448.28824	633.712
448.30408	628.41
448.31992	627.473
448.33575	628.946
448.35159	632.607
448.36743	630.788
448.38327	623.597
448.39911	618.753
448.41495	626.049
448.43079	634.026
448.44662	644.694
448.46246	658.692
448.4783	677.548
448.49414	688.959
448.50998	689.223
448.52579	673.676
448.54163	657.04
448.55746	651.381
448.5733	645.866
448.58914	638.963
448.60498	631.637
448.62082	621.543
448.63666	618.328
448.6525	622.739
448.66833	624.582
448.68417	624.227
448.70001	636.351
448.71585	657.616
448.73169	665.936
448.74753	662.761
448.76337	655.47
448.77921	649.148
448.79504	647.803
448.81088	648.223
448.82672	646.129
448.84256	638.358
448.8584	631.933
448.87424	633.856
448.89008	637.841
448.90591	633.504
448.92172	628.326
448.93756	632.205
448.9534	637.614
448.96924	640.956
448.98508	648.559
449.00092	652.733
449.01675	653.945
449.03259	657.509
449.04843	657.935
449.06427	650.198
449.08011	640.886
449.09595	631.878
449.11179	623.502
449.12762	621.327
449.14346	617.27
449.1593	608.616
449.17514	605.485
449.19098	612.365
449.20682	630.827
449.22266	649.56
449.23849	657.977
449.25433	656.535
449.27017	658.524
449.28601	662.901
449.30185	658.454
449.31766	644.362
449.3335	632.062
449.34933	622.197
449.36517	620.057
449.38101	628.788
449.39685	635.965
449.41269	637.602
449.42853	646.39
449.44437	655.91
449.46021	650.878
449.47604	638.773
449.49188	643.349
449.50772	656.411
449.52356	651.658
449.5394	643.401
449.55524	642.337
449.57108	648.344
449.58691	650.104
449.60275	643.783
449.61859	638.539
449.63443	634.035
449.65027	634.103
449.66611	640.688
449.68195	647.299
449.69778	654.965
449.71359	656.128
449.72943	650.028
449.74527	661.614
449.76111	662.123
449.77695	658.174
449.79279	664.895
449.80862	662.202
449.82446	651.252
449.8403	642.368
449.85614	639.062
449.87198	637.89
449.88782	635.935
449.90366	640.991
449.91949	655.336
449.93533	671.819
449.95117	669.49
449.96701	655.932
449.98285	643.638
449.99869	635.972
450.01453	632.431
450.03036	631.007
450.0462	627.594
450.06204	627.121
450.07788	638.471
450.09372	651.376
450.10953	656.206
450.12537	656.635
450.1412	656.573
450.15704	654.385
450.17288	657.104
450.18872	661.404
450.20456	652.88
450.2204	641.3
450.23624	643.252
450.25208	653.195
450.26791	658.743
450.28375	651.415
450.29959	639.814
450.31543	633.813
450.33127	629.601
450.34711	629.839
450.36295	636.684
450.37878	649.868
450.39462	661.061
450.41046	662.748
450.4263	657.792
450.44214	654.061
450.45798	651.779
450.47382	647.015
450.48965	644.514
450.50546	645.2
450.5213	640.156
450.53714	635.294
450.55298	632.39
450.56882	637.279
450.58466	647.81
450.60049	651.345
450.61633	652.394
450.63217	649.301
450.64801	645.208
450.66385	645.05
450.67969	645.764
450.69553	648.83
450.71136	653.116
450.7272	653.978
450.74304	643.667
450.75888	638.076
450.77472	641.013
450.79056	641.875
450.8064	642.278
450.82224	646.038
450.83807	643.561
450.85391	637.577
450.86975	636.028
450.88559	634.704
450.9014	634.266
450.91724	641.825
450.93307	646.416
450.94891	647.664
450.96475	648.03
450.98059	648.466
450.99643	650.341
451.01227	645.252
451.02811	632.858
451.04395	623.645
451.05978	621.648
451.07562	624.286
451.09146	623.558
451.1073	620.59
451.12314	617.165
451.13898	609.977
451.15482	608.033
451.17065	612.156
451.18649	609.616
451.20233	611.419
451.21817	621.751
451.23401	624.854
451.24985	622.789
451.26569	624.046
451.28152	625.288
451.29733	622.335
451.31317	623.608
451.32901	625.35
451.34485	624.084
451.36069	620.307
451.37653	617.85
451.39236	614.104
451.4082	608.076
451.42404	608.204
451.43988	607.113
451.45572	602.434
451.47156	605.265
451.4874	604.945
451.50323	602.526
451.51907	598.545
451.53491	593.125
451.55075	588.214
451.56659	583.482
451.58243	584.165
451.59827	589.059
451.61411	592.845
451.62994	593.92
451.64578	595.237
451.66162	600.387
451.67746	604.355
451.69327	609.322
451.70911	606.912
451.72495	599.368
451.74078	595.99
451.75662	600.207
451.77246	608.898
451.7883	615.54
451.80414	616.538
451.81998	615.513
451.83582	615.238
451.85165	616.997
451.86749	622.816
451.88333	623.479
451.89917	616.713
451.91501	611.326
451.93085	608.218
451.94669	603.99
451.96252	601.819
451.97836	605.956
451.9942	610.425
452.01004	613.337
452.02588	612.158
452.04172	609.106
452.05756	607.851
452.07339	609.198
452.0892	610.018
452.10504	611.823
452.12088	614.39
452.13672	614.403
452.15256	609.03
452.1684	605.163
452.18423	604.284
452.20007	600.097
452.21591	599.656
452.23175	596.185
452.24759	596.313
452.26343	602.197
452.27927	609.401
452.2951	609.719
452.31094	607.446
452.32678	607.636
452.34262	606.256
452.35846	601.577
452.3743	598.209
452.39014	601.86
452.40598	603.727
452.42181	602.118
452.43765	602.059
452.45349	604.305
452.46933	609.808
452.48514	612.148
452.50098	608.017
452.51682	606.398
452.53265	607.631
452.54849	610.292
452.56433	608.439
452.58017	605.564
452.59601	606.989
452.61185	608.047
452.62769	602.607
452.64352	596.48
452.65936	601.196
452.6752	605.553
452.69104	604.022
452.70688	606.192
452.72272	605.897
452.73856	604.918
452.75439	612.282
452.77023	614.692
452.78607	611.235
452.80191	611.298
452.81775	610.202
452.83359	608.253
452.84943	610.845
452.86526	616.463
452.88107	622.263
452.89691	621.334
452.91275	615.193
452.92859	607.721
452.94443	607.51
452.96027	611.361
452.9761	608.655
452.99194	601.821
453.00778	597.408
453.02362	597.366
453.03946	601.12
453.0553	602.896
453.07114	604.324
453.08698	605.654
453.10281	607.538
453.11865	611.131
453.13449	610.882
453.15033	606.959
453.16617	603.218
453.18201	602.193
453.19785	603.4
453.21368	607.775
453.22952	613.273
453.24536	609.226
453.2612	600.565
453.27701	602.689
453.29285	606.208
453.30869	602.361
453.32452	601.223
453.34036	608.72
453.3562	615.638
453.37204	617.115
453.38788	618.025
453.40372	620.172
453.41956	618.729
453.43539	619.08
453.45123	623.964
453.46707	620.113
453.48291	614.738
453.49875	615.402
453.51459	616.208
453.53043	613.279
453.54626	613.582
453.5621	615.146
453.57794	611.762
453.59378	607.644
453.60962	607.325
453.62546	610.477
453.6413	613.669
453.65714	617.173
453.67294	619.479
453.68878	621.743
453.70462	622.759
453.72046	620.341
453.7363	617.869
453.75214	615.433
453.76797	613.787
453.78381	610.875
453.79965	609.058
453.81549	608.662
453.83133	608.364
453.84717	610.607
453.86301	607.774
453.87885	601.173
453.89468	598.753
453.91052	602.462
453.92636	609.251
453.9422	611.704
453.95804	610.409
453.97388	604.957
453.98972	602.534
454.00555	604.821
454.02139	607.058
454.03723	606.559
454.05307	605.462
454.06888	605.732
454.08472	605.438
454.10056	607.57
454.11639	614.126
454.13223	620.49
454.14807	615.307
454.16391	607.26
454.17975	608.473
454.19559	610.59
454.21143	612.47
454.22726	605.508
454.2431	599.01
454.25894	606.305
454.27478	613.997
454.29062	616.863
454.30646	615.853
454.3223	611.083
454.33813	608.705
454.35397	603.266
454.36981	604.172
454.38565	617.748
454.40149	632.315
454.41733	626.583
454.43317	611.109
454.44901	607.28
454.46481	608.086
454.48065	603.753
454.49649	596.102
454.51233	591.195
454.52817	598.192
454.54401	607.362
454.55984	617.305
454.57568	620.61
454.59152	611.929
454.60736	603.259
454.6232	605.229
454.63904	615.397
454.65488	619.782
454.67072	616.631
454.68655	617.83
454.70239	624.443
454.71823	626.398
454.73407	617.836
454.74991	615.095
454.76575	612.908
454.78159	611.435
454.79742	612.879
454.81326	612.762
454.8291	617.632
454.84494	621.735
454.86075	628.604
454.87659	636.12
454.89243	638.9
454.90826	633.353
454.9241	620.979
454.93994	614.027
454.95578	611.546
454.97162	612.143
454.98746	616.634
455.0033	628.892
455.01913	637.961
455.03497	641.367
455.05081	638.9
455.06665	638.693
455.08249	634.435
455.09833	626.083
455.11417	622.519
455.13	620.136
455.14584	621.179
455.16168	625.374
455.17752	625.422
455.19336	620.421
455.2092	619.608
455.22504	620.403
455.24088	618.986
455.25668	620.698
455.27252	620.382
455.28836	611.254
455.3042	601.852
455.32004	605.302
455.33588	618.07
455.35172	626.706
455.36755	622.548
455.38339	616.533
455.39923	617.374
455.41507	617.547
455.43091	618.455
455.44675	619.577
455.46259	616.133
455.47842	610.251
455.49426	607.643
455.5101	601.935
455.52594	601.271
455.54178	611.066
455.55762	619.745
455.57346	619.882
455.58929	618.165
455.60513	617.581
455.62097	613.071
455.63681	609.944
455.65262	609.021
455.66846	613.595
455.6843	618.55
455.70013	621.469
455.71597	623.692
455.73181	616.697
455.74765	611.671
455.76349	618.005
455.77933	626.192
455.79517	634.172
455.811	638.39
455.82684	631.969
455.84268	625.308
455.85852	622.126
455.87436	613.016
455.8902	606.523
455.90604	608.302
455.92188	614.641
455.93771	619.032
455.95355	618.766
455.96939	617.339
455.98523	621.732
456.00107	621.025
456.01691	617.547
456.03275	609.474
456.04855	602.182
456.06439	601.749
456.08023	607.226
456.09607	607.714
456.11191	604.49
456.12775	606.916
456.14359	609.899
456.15942	608.847
456.17526	611.273
456.1911	615.545
456.20694	611.664
456.22278	614.24
456.23862	621.556
456.25446	631.01
456.27029	638.794
456.28613	630.801
456.30197	620.651
456.31781	620.784
456.33365	622.034
456.34949	622.377
456.36533	616.978
456.38116	615.595
456.397	619.613
456.41284	621.556
456.42868	623.781
456.44449	620.299
456.46033	611.927
456.47617	615.031
456.492	617.751
456.50784	611.026
456.52368	605.116
456.53952	606.617
456.55536	611.654
456.5712	613.11
456.58704	610.573
456.60287	605.773
456.61871	603.916
456.63455	610.627
456.65039	613.111
456.66623	611.807
456.68207	616.866
456.69791	623.031
456.71375	626.917
456.72958	629.778
456.74542	627.917
456.76126	629.693
456.7771	628.379
456.79294	618.932
456.80878	615.257
456.82462	612.031
456.84042	611.056
456.85626	617.503
456.8721	615.645
456.88794	604.682
456.90378	601.847
456.91962	605.877
456.93546	609.329
456.95129	607.24
456.96713	605.215
456.98297	609.693
456.99881	605.354
457.01465	604.28
457.03049	604.092
457.04633	603.112
457.06216	602.25
457.078	609.343
457.09384	621.371
457.10968	626.98
457.12552	626.721
457.14136	631.933
457.1572	643.319
457.17303	653.154
457.18887	653.86
457.20471	647.439
457.22055	640.3
457.23636	635.444
457.2522	632.093
457.26804	624.447
457.28387	613.63
457.29971	609.851
457.31555	615.532
457.33139	624.763
457.34723	627.414
457.36307	623.511
457.37891	625.188
457.39474	633.098
457.41058	633.765
457.42642	625.144
457.44226	614.475
457.4581	607.982
457.47394	605.918
457.48978	610.39
457.50562	620.203
457.52145	628.765
457.53729	626.791
457.55313	619.148
457.56897	616.002
457.58481	610.765
457.60065	606.63
457.61649	605.956
457.63229	609.936
457.64813	617.064
457.66397	621.575
457.67981	618.887
457.69565	613.098
457.71149	615.97
457.72733	615.422
457.74316	604.291
457.759	599.67
457.77484	604.133
457.79068	605.742
457.80652	606.108
457.82236	608.759
457.8382	613.558
457.85403	617.888
457.86987	618.441
457.88571	626.299
457.90155	635.865
457.91739	637.64
457.93323	634.854
457.94907	630.701
457.9649	624.919
457.98074	615.194
457.99658	613.724
458.01242	628.982
458.02823	641.784
458.04407	634.712
458.05991	627.795
458.07574	629.675
458.09158	626.231
458.10742	615.181
458.12326	608.03
458.1391	606.498
458.15494	597.615
458.17078	592.575
458.18661	593.328
458.20245	590.672
458.21829	588.988
458.23413	594.573
458.24997	600.461
458.26581	604.368
458.28165	605.405
458.29749	607.435
458.31332	608.686
458.32916	611.779
458.345	620.309
458.36084	625.659
458.37668	625.404
458.39252	624.512
458.40836	620.095
458.42416	617.824
458.44	614.682
458.45584	607.211
458.47168	600.961
458.48752	598.191
458.50336	604.012
458.5192	608.936
458.53503	607.078
458.55087	606.811
458.56671	606.97
458.58255	608.591
458.59839	611.422
458.61423	615.658
458.63007	614.94
458.6459	611.815
458.66174	617.339
458.67758	619.829
458.69342	615.293
458.70926	605.194
458.7251	597.275
458.74094	602.309
458.75677	615.382
458.77261	623.866
458.78845	619.826
458.80429	612.463
458.8201	610.544
458.83594	608.657
458.85178	606.513
458.86761	611.649
458.88345	617.304
458.89929	620.557
458.91513	620.591
458.93097	615.022
458.94681	622.601
458.96265	634.712
458.97849	628.097
458.99432	627.683
459.01016	630.073
459.026	630.6
459.04184	637.594
459.05768	643.405
459.07352	635.711
459.08936	623.914
459.10519	616.79
459.12103	615.38
459.13687	615.616
459.15271	618.707
459.16855	616.458
459.18439	605.923
459.20023	595.263
459.21603	592.976
459.23187	597.265
459.24771	596.165
459.26355	594.437
459.27939	599.511
459.29523	597.432
459.31107	595.947
459.3269	596.888
459.34274	604.977
459.35858	611.246
459.37442	612.132
459.39026	615.394
459.4061	619.525
459.42194	623.85
459.43777	627.262
459.45361	625.401
459.46945	621.561
459.48529	618.4
459.50113	619.442
459.51697	615.95
459.53281	611.465
459.54865	611.971
459.56448	607.684
459.58032	602.204
459.59616	600.614
459.61197	604.368
459.62781	608.963
459.64365	615.312
459.65948	620.621
459.67532	622.501
459.69116	629.353
459.707	634.497
459.72284	635.002
459.73868	634.949
459.75452	627.968
459.77036	623.289
459.78619	628.95
459.80203	626.856
459.81787	614.369
459.83371	607.777
459.84955	612.351
459.86539	617.907
459.88123	618.749
459.89706	616.95
459.9129	619.262
459.92874	623.701
459.94458	628.177
459.96042	623.639
459.97626	616.158
459.9921	617.233
460.0079	614.304
460.02374	611.844
460.03958	607.682
460.05542	598.759
460.07126	591.64
460.0871	584.461
460.10294	584.412
460.11877	598.545
460.13461	610.302
460.15045	612.094
460.16629	614.195
460.18213	614.301
460.19797	610.902
460.21381	607.923
460.22964	606.003
460.24548	608.889
460.26132	607.04
460.27716	604.522
460.293	600.479
460.30884	596.605
460.32468	600.375
460.34052	610.793
460.35635	615.475
460.37219	613.643
460.38803	615.691
460.40384	627.267
460.41968	635.685
460.43552	633.194
460.45135	622.858
460.46719	609.937
460.48303	605.093
460.49887	615.197
460.51471	621.634
460.53055	617.552
460.54639	616.453
460.56223	622.639
460.57806	628.318
460.5939	618.569
460.60974	602.538
460.62558	601.15
460.64142	610.141
460.65726	621.742
460.6731	622.805
460.68893	615.601
460.70477	610.094
460.72061	611.884
460.73645	620.476
460.75229	622.036
460.76813	612.005
460.78397	608.281
460.79977	610.067
460.81561	612.125
460.83145	613.063
460.84729	617.88
460.86313	618.16
460.87897	609.554
460.89481	604.706
460.91064	606.673
460.92648	610.604
460.94232	609.866
460.95816	606.195
460.974	609.234
460.98984	608.648
461.00568	609.763
461.02151	610.394
461.03735	614.842
461.05319	615.461
461.06903	611.709
461.08487	605.932
461.10071	602.629
461.11655	606.176
461.13239	607.917
461.14822	602.558
461.16406	598.077
461.1799	599.207
461.19571	603.397
461.21155	603.41
461.22739	606.843
461.24323	612.61
461.25906	610.552
461.2749	608.431
461.29074	602.943
461.30658	603.213
461.32242	604.028
461.33826	600.131
461.3541	600.404
461.36993	603.186
461.38577	607.838
461.40161	615.262
461.41745	615.401
461.43329	610.856
461.44913	609.345
461.46497	608.519
461.4808	610.147
461.49664	614.286
461.51248	614.61
461.52832	611.18
461.54416	607.253
461.56	600.363
461.57584	599.375
461.59164	598.803
461.60748	599.906
461.62332	606.327
461.63916	610.275
461.655	610.797
461.67084	613.211
461.68668	622.042
461.70251	629.386
461.71835	627.968
461.73419	628.823
461.75003	632.803
461.76587	633.611
461.78171	625.4
461.79755	613.863
461.81339	603.026
461.82922	595.817
461.84506	599.375
461.8609	607.532
461.87674	610.245
461.89258	608.867
461.90842	611.384
461.92426	620.88
461.94009	632.141
461.95593	633.538
461.97177	632.365
461.98758	637.561
462.00342	641.24
462.01926	633.893
462.0351	622.75
462.05093	615.134
462.06677	617.944
462.08261	623.135
462.09845	620.343
462.11429	624.271
462.13013	631.099
462.14597	627.02
462.1618	627.074
462.17764	628.266
462.19348	620.797
462.20932	611.29
462.22516	606.06
462.241	600.338
462.25684	593.119
462.27267	588.067
462.28851	585.738
462.30435	588.856
462.32019	595.367
462.33603	602.118
462.35187	609.917
462.36771	615.245
462.38351	611.385
462.39935	604.607
462.41519	608.202
462.43103	618.926
462.44687	617.926
462.46271	607.21
462.47855	604.127
462.49438	608.725
462.51022	609.724
462.52606	607.499
462.5419	604.362
462.55774	602.841
462.57358	608.278
462.58942	612.943
462.60526	607.986
462.62109	602.342
462.63693	604.967
462.65277	610.187
462.66861	617.286
462.68445	625.72
462.70029	626.897
462.71613	623.284
462.73196	619.754
462.7478	614.702
462.76364	610.272
462.77945	608.727
462.79529	605.776
462.81113	600.515
462.82697	598.492
462.8428	606.098
462.85864	611.362
462.87448	606.413
462.89032	604.312
462.90616	612.59
462.922	620.999
462.93784	620.096
462.95367	618.958
462.96951	618.444
462.98535	622.54
463.00119	628.116
463.01703	628.776
463.03287	635.724
463.04871	645.43
463.06454	650.636
463.08038	651.833
463.09622	641.445
463.11206	629.125
463.1279	623.474
463.14374	621.159
463.15958	613.049
463.17538	604.666
463.19122	607.902
463.20706	610.762
463.2229	608.435
463.23874	606.38
463.25458	609.718
463.27042	620.649
463.28625	632.95
463.30209	636.868
463.31793	637.836
463.33377	631.521
463.34961	626.804
463.36545	629.395
463.38129	634.395
463.39713	630.796
463.41296	616.359
463.4288	606.369
463.44464	600.103
463.46048	595.859
463.47632	597.92
463.49216	601.933
463.508	601.946
463.52383	596.745
463.53967	593.772
463.55551	595.029
463.57132	592.527
463.58716	594.116
463.603	605.517
463.61884	614.875
463.63467	617.935
463.65051	619.693
463.66635	620.773
463.68219	623.591
463.69803	632.586
463.71387	633.614
463.72971	626.765
463.74554	618.795
463.76138	614.408
463.77722	614.962
463.79306	613.394
463.8089	609.184
463.82474	606.485
463.84058	607.591
463.85641	608.662
463.87225	609.306
463.88809	616.651
463.90393	626.946
463.91977	628.011
463.93561	620.214
463.95145	616.585
463.96725	620.386
463.98309	614.663
463.99893	608.563
464.01477	601.25
464.03061	599.238
464.04645	601.872
464.06229	604.23
464.07813	605.563
464.09396	608.566
464.1098	613.66
464.12564	612.947
464.14148	611.488
464.15732	610.429
464.17316	608.864
464.189	609.317
464.20483	612.999
464.22067	621.699
464.23651	624.54
464.25235	623.354
464.26819	621.188
464.28403	620.255
464.29987	617.21
464.3157	611.62
464.33154	611.963
464.34738	616.594
464.36319	620.896
464.37903	626.304
464.39487	629.652
464.41071	630.07
464.42654	630.85
464.44238	634.708
464.45822	635.526
464.47406	629.828
464.4899	627.649
464.50574	622.583
464.52158	615.957
464.53741	616.586
464.55325	618.771
464.56909	617.008
464.58493	619.816
464.60077	626.8
464.61661	623.899
464.63245	622.783
464.64828	628.473
464.66412	631.616
464.67996	629.068
464.6958	627.298
464.71164	624.765
464.72748	622.623
464.74332	622.228
464.75912	620.843
464.77496	614.124
464.7908	613.759
464.80664	618.725
464.82248	619.2
464.83832	616.51
464.85416	617.593
464.87	622.833
464.88583	619.098
464.90167	611.107
464.91751	611.64
464.93335	616.621
464.94919	620.893
464.96503	620.759
464.98087	621.154
464.9967	617.673
465.01254	615.628
465.02838	622.12
465.04422	624.398
465.06006	626.006
465.0759	624.517
465.09174	618.63
465.10757	610.788
465.12341	603.323
465.13925	602.815
465.15506	606.59
465.1709	606.274
465.18674	607.424
465.20258	610.571
465.21841	610.898
465.23425	613.705
465.25009	615.545
465.26593	616.556
465.28177	620.598
465.29761	617.817
465.31345	617.881
465.32928	618.65
465.34512	619.773
465.36096	626.574
465.3768	633.179
465.39264	636.606
465.40848	636.614
465.42432	636.004
465.44016	635.833
465.45599	630.939
465.47183	627.348
465.48767	625.118
465.50351	623.196
465.51935	619.922
465.53519	612.685
465.55099	607.981
465.56683	611.468
465.58267	616.068
465.59851	623.722
465.61435	627.974
465.63019	626.998
465.64603	620.07
465.66187	612.447
465.6777	611.149
465.69354	612.889
465.70938	614.428
465.72522	612.029
465.74106	612.803
465.7569	613.874
465.77274	613.888
465.78857	617.475
465.80441	616.074
465.82025	620.089
465.83609	625.751
465.85193	627.265
465.86777	630.759
465.88361	633.001
465.89944	629.334
465.91528	619.908
465.93112	606.25
465.94693	599.001
465.96277	600.181
465.97861	606.287
465.99445	610.769
466.01028	616.75
466.02612	618.883
466.04196	612.975
466.0578	607.652
466.07364	611.43
466.08948	614.733
466.10532	616.781
466.12115	626.939
466.13699	637.372
466.15283	641.522
466.16867	645.154
466.18451	643.571
466.20035	638.012
466.21619	631.597
466.23203	625.239
466.24786	618.169
466.2637	607.745
466.27954	608.513
466.29538	613.634
466.31122	616.058
466.32706	616.178
466.34286	616.6
466.3587	617.966
466.37454	618.286
466.39038	613.729
466.40622	605.921
466.42206	605.867
466.4379	613.329
466.45374	620.17
466.46957	618.961
466.48541	611.273
466.50125	604.766
466.51709	606.897
466.53293	611.717
466.54877	605.466
466.56461	599.145
466.58044	597.938
466.59628	596.948
466.61212	599.119
466.62796	606.444
466.6438	609.168
466.65964	608.251
466.67548	602.548
466.69131	600.444
466.70715	607.753
466.72299	616.383
466.7388	612.296
466.75464	610.052
466.77048	623.658
466.78632	632.919
466.80215	631.174
466.81799	618.505
466.83383	611.166
466.84967	617.066
466.86551	627.167
466.88135	635.572
466.89719	637.983
466.91302	638.79
466.92886	633.672
466.9447	619.653
466.96054	609.034
466.97638	604.158
466.99222	605.12
467.00806	605.791
467.0239	611.592
467.03973	621.536
467.05557	621.36
467.07141	614.364
467.08725	607.671
467.10309	600.354
467.11893	596.553
467.13474	606.529
467.15057	622.961
467.16641	624.062
467.18225	617.534
467.19809	617.947
467.21393	618.905
467.22977	624.118
467.24561	629.902
467.26144	627.903
467.27728	624.288
467.29312	623.953
467.30896	622.436
467.3248	616.153
467.34064	612.746
467.35648	610.909
467.37231	609.787
467.38815	611.313
467.40399	611.605
467.41983	615.473
467.43567	621.404
467.45151	626.732
467.46735	623.229
467.48318	611.946
467.49902	607.749
467.51486	610.887
467.53067	621.895
467.54651	631.751
467.56235	630.977
467.57819	635.076
467.59402	637.227
467.60986	636.129
467.6257	634.62
467.64154	628.848
467.65738	625.05
467.67322	622.144
467.68906	616.268
467.7049	615.706
467.72073	613.74
467.73657	614.301
467.75241	615.22
467.76825	611.451
467.78409	623.275
467.79993	628.146
467.81577	623.597
467.8316	621.031
467.84744	623.873
467.86328	629.207
467.87912	630.962
467.89496	622.854
467.9108	614.356
467.92661	610.093
467.94244	608.183
467.95828	609.841
467.97412	613.888
467.98996	620.43
468.0058	621.007
468.02164	611.398
468.03748	607.787
468.05331	622.707
468.06915	624.155
468.08499	610.42
468.10083	609.248
468.11667	613.488
468.13251	622.095
468.14835	631.622
468.16418	633.339
468.18002	631.899
468.19586	632.329
468.2117	627.072
468.22754	622.831
468.24338	630.134
468.25922	630.923
468.27505	637.398
468.29089	650.641
468.30673	638.698
468.32254	621.05
468.33838	620.405
468.35422	620.44
468.37006	619.725
468.38589	622.483
468.40173	619.827
468.41757	617.568
468.43341	613.813
468.44925	615.012
468.46509	630.071
468.48093	637.379
468.49677	624.575
468.5126	618.306
468.52844	612.126
468.54428	609.488
468.56012	611.784
468.57596	606.047
468.5918	602.547
468.60764	605.094
468.62347	601.493
468.63931	599.114
468.65515	607.166
468.67099	612.623
468.68683	611.419
468.70267	613.203
468.71848	611.587
468.73431	610.735
468.75015	612.672
468.76599	608.908
468.78183	605.83
468.79767	618.103
468.81351	624.594
468.82935	623.571
468.84518	620.136
468.86102	620.15
468.87686	628.04
468.8927	632.876
468.90854	639.168
468.92438	650.986
468.94022	660.032
468.95605	667.793
468.97189	674.798
468.98773	662.816
469.00357	647.739
469.01941	656.582
469.03525	648.829
469.05109	636.519
469.06693	627.653
469.08276	619.939
469.0986	620.073
469.11441	622
469.13025	619.956
469.14609	609.176
469.16193	601.277
469.17776	602.207
469.1936	605.902
469.20944	603.751
469.22528	598.474
469.24112	599.368
469.25696	607.007
469.2728	611.358
469.28864	610.374
469.30447	604.619
469.32031	599.593
469.33615	602.693
469.35199	604.833
469.36783	604.047
469.38367	607.338
469.39951	614.942
469.41534	622.41
469.43118	630.225
469.44702	629.758
469.46286	630.631
469.4787	633.636
469.49454	625.662
469.51035	615.988
469.52618	614.366
469.54202	612.307
469.55786	613.039
469.5737	616.743
469.58954	631.61
469.60538	648.059
469.62122	660.405
469.63705	665.237
469.65289	659.575
469.66873	648.65
469.68457	632.723
469.70041	619.987
469.71625	611.321
469.73209	608.588
469.74792	610.192
469.76376	612.766
469.7796	617.081
469.79544	618.429
469.81128	609.092
469.82712	616.584
469.84296	615.431
469.8588	613.287
469.87463	614.764
469.89047	620.688
469.90628	625.351
469.92212	624.2
469.93796	623.614
469.9538	626.642
469.96964	621.799
469.98547	606.686
470.00131	593.96
470.01715	593.983
470.03299	601.229
470.04883	603.307
470.06467	603.83
470.08051	608.211
470.09634	611.224
470.11218	614.298
470.12802	622.775
470.14386	623.332
470.1597	620.181
470.17554	617.209
470.19138	612.584
470.20721	610.84
470.22305	616.997
470.23889	628.448
470.25473	641.523
470.27057	647.595
470.28641	645.987
470.30222	641.811
470.31805	631.587
470.33389	615.909
470.34973	606.758
470.36557	601.727
470.38141	601.03
470.39725	609.442
470.41309	623.443
470.42892	627.32
470.44476	614.018
470.4606	601.297
470.47644	596.35
470.49228	594.74
470.50812	600.82
470.52396	614.993
470.53979	625.156
470.55563	626.248
470.57147	624.764
470.58731	627.276
470.60315	627.689
470.61899	620.815
470.63483	613.108
470.65067	609.135
470.6665	610.256
470.68234	610.965
470.69815	602.486
470.71399	600.774
470.72983	604.974
470.74567	603.273
470.76151	605.366
470.77734	610.909
470.79318	610.063
470.80902	612.28
470.82486	610.673
470.8407	609
470.85654	611.502
470.87238	619.925
470.88821	625.624
470.90405	628.171
470.91989	629.463
470.93573	630.255
470.95157	626.454
470.96741	617.798
470.98325	613.914
470.99908	611.97
471.01492	601.234
471.03076	593.395
471.0466	596.017
471.06244	605.353
471.07828	613.179
471.09409	610.287
471.10992	605.5
471.12576	605.372
471.1416	607.014
471.15744	610.194
471.17328	611.844
471.18912	611.135
471.20496	610.623
471.22079	614.681
471.23663	608.244
471.25247	599.452
471.26831	599.822
471.28415	601.394
471.29999	599.811
471.31583	597.938
471.33167	606.466
471.3475	615.488
471.36334	603.01
471.37918	600.633
471.39502	606.179
471.41086	607.294
471.4267	602.011
471.44254	601.321
471.45837	618.197
471.47421	641.722
471.49002	649.786
471.50586	650.418
471.5217	644.409
471.53754	636.065
471.55338	632.642
471.56921	626.657
471.58505	623.795
471.60089	630.792
471.61673	629.9
471.63257	617.406
471.64841	618.646
471.66425	617.177
471.68008	610.887
471.69592	603.97
471.71176	597.067
471.7276	595.112
471.74344	594.086
471.75928	598.508
471.77512	605.425
471.79095	608.986
471.80679	609.582
471.82263	608.463
471.83847	613.391
471.85431	608.743
471.87015	604.928
471.88596	603.019
471.90179	600.095
471.91763	603.802
471.93347	606.77
471.94931	607.177
471.96515	610.99
471.98099	611.955
471.99683	614.97
472.01266	609.517
472.0285	606.916
472.04434	612.037
472.06018	612.333
472.07602	620.321
472.09186	628
472.1077	632.633
472.12354	640.751
472.13937	642.242
472.15521	650.225
472.17105	653.153
472.18689	635.346
472.20273	617.487
472.21857	613.291
472.23441	607.951
472.25024	599.145
472.26608	598.323
472.28192	608.122
472.29773	617.908
472.31357	616.582
472.32941	606.971
472.34525	599.496
472.36108	593.128
472.37692	593.361
472.39276	596.912
472.4086	598.657
472.42444	605.004
472.44028	616.493
472.45612	622.505
472.47195	613.635
472.48779	608.472
472.50363	608.868
472.51947	599.412
472.53531	593.357
472.55115	597.535
472.56699	603.418
472.58282	595.546
472.59866	592.366
472.6145	594.748
472.63034	601.47
472.64618	614.707
472.66202	616.233
472.67786	613.12
472.69366	615.518
472.7095	623.94
472.72534	636.228
472.74118	642.383
472.75702	644.824
472.77286	646.496
472.7887	632.292
472.80453	610.242
472.82037	605.734
472.83621	607.936
472.85205	613.029
472.86789	610.632
472.88373	600.85
472.89957	596.644
472.91541	598.021
472.93124	599.994
472.94708	603.127
472.96292	602.684
472.97876	607.583
472.9946	608.524
473.01044	603.68
473.02628	602.508
473.04211	603.539
473.05795	604
473.07379	604.265
473.0896	607.285
473.10544	607.868
473.12128	604.18
473.13712	606.219
473.15295	609.663
473.16879	611.734
473.18463	614.402
473.20047	610.64
473.21631	606.428
473.23215	611.759
473.24799	619.665
473.26382	623.985
473.27966	638.008
473.2955	646.756
473.31134	650.091
473.32718	644.62
473.34302	634.195
473.35886	624.471
473.37469	618.553
473.39053	618.563
473.40637	616.834
473.42221	613.247
473.43805	612.224
473.45389	610.333
473.46973	608.312
473.48553	616.907
473.50137	627.023
473.51721	622.788
473.53305	621.163
473.54889	618.832
473.56473	612.263
473.58057	608.437
473.59641	607.731
473.61224	611.16
473.62808	619.999
473.64392	620.508
473.65976	612.36
473.6756	613.146
473.69144	619.028
473.70728	617.186
473.72311	608.946
473.73895	606.779
473.75479	612.748
473.77063	618.392
473.78647	623.156
473.80231	628.7
473.81815	650.05
473.83398	663.874
473.84982	661.89
473.86566	653.152
473.88147	642.006
473.89731	627.97
473.91315	620.873
473.92899	614.652
473.94482	601.878
473.96066	597.715
473.9765	608.76
473.99234	618.203
474.00818	620.773
474.02402	614.268
474.03986	605.435
474.05569	608.293
474.07153	610.071
474.08737	609.557
474.10321	619.019
474.11905	629.168
474.13489	627.412
474.15073	618.914
474.16656	614.776
474.1824	609.804
474.19824	601.885
474.21408	600.37
474.22992	600.744
474.24576	599.217
474.2616	593.995
474.2774	595.095
474.29324	609.332
474.30908	618.287
474.32492	618.901
474.34076	623.49
474.3566	630.639
474.37244	639.77
474.38828	652.908
474.40411	658.382
474.41995	644.395
474.43579	624.693
474.45163	610.962
474.46747	605.822
474.48331	607.392
474.49915	609.045
474.51498	604.654
474.53082	602.74
474.54666	605.767
474.5625	602.984
474.57834	602.548
474.59418	602.032
474.61002	597.31
474.62585	593.468
474.64169	592.323
474.65753	593.616
474.67334	599.741
474.68918	613.405
474.70502	620.229
474.72086	611.456
474.73669	597.024
474.75253	585.943
474.76837	583.171
474.78421	580.031
474.80005	580.32
474.81589	588.349
474.83173	589.051
474.84756	590.306
474.8634	602.293
474.87924	613.5
474.89508	628.098
474.91092	642.591
474.92676	648.283
474.9426	641.089
474.95844	626.315
474.97427	611.888
474.99011	601.954
475.00595	600.779
475.02179	601.96
475.03763	599.089
475.05347	596.776
475.06927	590.621
475.08511	592.096
475.10095	597.373
475.11679	601.322
475.13263	603.014
475.14847	604.057
475.16431	601.664
475.18015	609.033
475.19598	624.892
475.21182	635.622
475.22766	631.863
475.2435	620.836
475.25934	612.381
475.27518	608.337
475.29102	606.027
475.30685	602.867
475.32269	606.667
475.33853	606.902
475.35437	609.63
475.37021	620.405
475.38605	629.892
475.40189	633.525
475.41772	635.174
475.43356	643.072
475.4494	650.325
475.46521	650.346
475.48105	641.813
475.49689	626.352
475.51273	607.884
475.52856	593.042
475.5444	591.349
475.56024	594.765
475.57608	595.022
475.59192	599.769
475.60776	606.478
475.6236	606.289
475.63943	607.47
475.65527	611.478
475.67111	612.765
475.68695	615.338
475.70279	616.041
475.71863	615.499
475.73447	613.892
475.75031	608.241
475.76614	604.045
475.78198	605.306
475.79782	603.495
475.81366	593.869
475.8295	591.665
475.84534	599.31
475.86115	611.459
475.87698	618.912
475.89282	625.196
475.90866	631.198
475.9245	642.191
475.94034	646.25
475.95618	637.934
475.97202	636.099
475.98785	641.352
476.00369	641.548
476.01953	632.138
476.03537	624.822
476.05121	615.381
476.06705	600.363
476.08289	592.258
476.09872	587.522
476.11456	585.881
476.1304	591.105
476.14624	592.163
476.16208	591.13
476.17792	591.457
476.19376	595.068
476.20959	599.562
476.22543	604.248
476.24127	609.406
476.25708	617.068
476.27292	616.437
476.28876	611.935
476.3046	608.998
476.32043	605.129
476.33627	602.837
476.35211	606.523
476.36795	613.847
476.38379	618.489
476.39963	626.8
476.41547	638.007
476.4313	642.159
476.44714	639.966
476.46298	634.129
476.47882	626.705
476.49466	627.315
476.5105	626.434
476.52634	615.519
476.54218	607.848
476.55801	608.171
476.57385	602.095
476.58969	595.221
476.60553	597.178
476.62137	600.329
476.63721	599.943
476.65302	601.963
476.66885	607.635
476.68469	607.967
476.70053	606.24
476.71637	610.805
476.73221	617.808
476.74805	614.518
476.76389	601.516
476.77972	594.742
476.79556	597.923
476.8114	604.006
476.82724	607.493
476.84308	614.684
476.85892	626.177
476.87476	639.894
476.89059	645.283
476.90643	644.477
476.92227	646.113
476.93811	644.138
476.95395	640.555
476.96979	637.088
476.98563	630.316
477.00146	619.8
477.0173	612
477.03314	607.135
477.04895	606.177
477.06479	602.6
477.08063	603.905
477.09647	605.507
477.1123	606.011
477.12814	608.948
477.14398	610.359
477.15982	610.162
477.17566	616.063
477.1915	623.466
477.20734	631.098
477.22318	636.648
477.23901	629.714
477.25485	616.108
477.27069	605.891
477.28653	608.85
477.30237	624.63
477.31821	643.115
477.33405	650.186
477.34988	645.616
477.36572	641.744
477.38156	647.41
477.3974	648.23
477.41324	643.777
477.42908	637.216
477.44489	623.284
477.46072	610.089
477.47656	604.17
477.4924	605.327
477.50824	606.823
477.52408	601.488
477.53992	600.015
477.55576	604.803
477.57159	611.381
477.58743	610.867
477.60327	614.319
477.61911	618.97
477.63495	629.063
477.65079	636.181
477.66663	634.224
477.68246	627.096
477.6983	616.107
477.71414	616.689
477.72998	624.207
477.74582	627.889
477.76166	635.628
477.7775	642.665
477.79333	652.389
477.80917	652.05
477.82501	637.369
477.84082	632.442
477.85666	640.164
477.8725	639.226
477.88834	630.829
477.90417	630.563
477.92001	621.825
477.93585	609.757
477.95169	603.23
477.96753	601.416
477.98337	599.867
477.99921	602.333
478.01505	607.782
478.03088	609.261
478.04672	615.148
478.06256	622.466
478.0784	633.632
478.09424	636.768
478.11008	633.904
478.12592	626.755
478.14175	618.824
478.15759	620.271
478.17343	633.317
478.18927	653.25
478.20511	662.944
478.22095	665.344
478.23676	662.618
478.25259	649.817
478.26843	632.132
478.28427	623.895
478.30011	632.62
478.31595	647.015
478.33179	627.903
478.34763	604.74
478.36346	596.632
478.3793	600.76
478.39514	601.01
478.41098	601.98
478.42682	605.221
478.44266	607.7
478.4585	613.11
478.47433	625.749
478.49017	640.822
478.50601	640.392
478.52185	639.551
478.53769	642.209
478.55353	640.187
478.56937	640.401
478.58521	644.992
478.60104	644.6
478.61688	640.883
478.63269	636.6
478.64853	630.403
478.66437	629.938
478.68021	637.393
478.69604	639.255
478.71188	632.643
478.72772	625.681
478.74356	621.9
478.7594	615.91
478.77524	617.463
478.79108	621.584
478.80692	617.606
478.82275	608.393
478.83859	602.217
478.85443	610.962
478.87027	619.075
478.88611	615.675
478.90195	619.736
478.91779	631.182
478.93362	635.035
478.94946	636.32
478.9653	644.563
478.98114	660.27
478.99698	657.268
479.01282	641.938
479.02863	628.152
479.04446	611.699
479.0603	615.513
479.07614	628.737
479.09198	630.013
479.10782	610.826
479.12366	601.344
479.1395	599.201
479.15533	593.764
479.17117	593.836
479.18701	594.139
479.20285	600.867
479.21869	606.411
479.23453	603.729
479.25037	604.11
479.2662	614.135
479.28204	624.104
479.29788	630.631
479.31372	641.555
479.32956	640.854
479.3454	643.499
479.36124	636.479
479.37708	632.843
479.39291	634.629
479.40875	634.313
479.42456	630.767
479.4404	630.832
479.45624	634.144
479.47208	629.705
479.48792	621.14
479.50375	619.567
479.51959	614.629
479.53543	604.59
479.55127	606.013
479.56711	606.656
479.58295	604.994
479.59879	610.241
479.61462	619.885
479.63046	618.983
479.6463	614.694
479.66214	623.353
479.67798	646.343
479.69382	670.975
479.70966	692.056
479.72549	695.331
479.74133	683.504
479.75717	664.022
479.77301	647.205
479.78885	631.782
479.80469	624.098
479.8205	624.015
479.83633	627.896
479.85217	629.009
479.86801	617.117
479.88385	607.974
479.89969	613.651
479.91553	618.396
479.93137	621.219
479.9472	626.691
479.96304	632.309
479.97888	641.554
479.99472	648.328
480.01056	651.485
480.0264	654.144
480.04224	651.288
480.05807	657.095
480.07391	658.867
480.08975	645.276
480.10559	636.875
480.12143	633.485
480.13727	620.805
480.15311	611.165
480.16895	616.278
480.18478	616.495
480.20062	612.257
480.21643	613.569
480.23227	612.232
480.24811	605.646
480.26395	607.201
480.27979	618.781
480.29562	631.111
480.31146	644.881
480.3273	657.811
480.34314	666.958
480.35898	667.855
480.37482	653.178
480.39066	642.167
480.40649	628.217
480.42233	619.158
480.43817	620.698
480.45401	621.029
480.46985	626.219
480.48569	631.017
480.50153	638.474
480.51736	646.271
480.5332	630.971
480.54904	611.624
480.56488	612.715
480.58072	617.014
480.59656	621.847
480.61237	643.882
480.6282	660.083
480.64404	658.302
480.65988	660.913
480.67572	660.307
480.69156	649.508
480.7074	638.953
480.72324	637.697
480.73907	639.83
480.75491	632.407
480.77075	621.316
480.78659	623.598
480.80243	631.46
480.81827	637.731
480.83411	634.901
480.84995	622.468
480.86578	610.686
480.88162	608.375
480.89746	617.228
480.9133	630.577
480.92914	642.387
480.94498	658.1
480.96082	672.291
480.97665	671.787
480.99249	657.573
481.0083	636.682
481.02414	612.02
481.03998	598.079
481.05582	607.699
481.07166	621.202
481.08749	620.867
481.10333	617.023
481.11917	624.998
481.13501	627.172
481.15085	625.406
481.16669	633.019
481.18253	641.291
481.19836	665.35
481.2142	679.95
481.23004	685.956
481.24588	689.769
481.26172	685.612
481.27756	672.928
481.2934	653.75
481.30923	639.073
481.32507	636.693
481.34091	637.392
481.35675	624.798
481.37259	616.409
481.38843	625.205
481.40424	619.605
481.42007	608.554
481.43591	613.53
481.45175	630.77
481.46759	646.836
481.48343	658.664
481.49927	664.255
481.51511	661.063
481.53094	647.813
481.54678	634.201
481.56262	618.622
481.57846	604.513
481.5943	597.509
481.61014	605.195
481.62598	616.536
481.64182	616.632
481.65765	614.01
481.67349	618.738
481.68933	637.071
481.70517	662.552
481.72101	684.253
481.73685	690.116
481.75269	682.727
481.76852	663.691
481.78436	652.181
481.80017	628.228
481.81601	630.422
481.83185	629.061
481.84769	618.562
481.86353	619.498
481.87936	628.457
481.8952	636.936
481.91104	632.634
481.92688	622.185
481.94272	631.829
481.95856	651.872
481.9744	663.667
481.99023	657.615
482.00607	642.473
482.02191	628.723
482.03775	616.841
482.05359	617.205
482.06943	626.798
482.08527	624.877
482.1011	618.008
482.11694	615.541
482.13278	625.213
482.14862	648.7
482.16446	663.908
482.1803	658.631
482.19611	651.182
482.21194	643.955
482.22778	631.996
482.24362	617.377
482.25946	602.558
482.2753	596.7
482.29114	600.517
482.30698	607.342
482.32281	619.404
482.33865	632.303
482.35449	650.324
482.37033	678.747
482.38617	693.012
482.40201	665.431
482.41785	636.275
482.43369	630.326
482.44952	619.778
482.46536	608.121
482.4812	606.533
482.49704	613.308
482.51288	622.057
482.52872	630.572
482.54456	643.171
482.56039	649.442
482.57623	655.524
482.59204	659.751
482.60788	656.267
482.62372	655.043
482.63956	642.309
482.6554	634.244
482.67123	639.722
482.68707	648.62
482.70291	651.57
482.71875	655.69
482.73459	662.632
482.75043	662.702
482.76627	654.608
482.7821	647.823
482.79794	647.241
482.81378	638.378
482.82962	634.337
482.84546	645.198
482.8613	647.42
482.87714	641.772
482.89297	634.674
482.90881	630.336
482.92465	636.593
482.94049	640.206
482.95633	636.446
482.97217	634.056
482.98798	637.059
483.00381	634.117
483.01965	635.318
483.03549	645.86
483.05133	654.152
483.06717	660.04
483.08301	650.637
483.09885	637.184
483.11469	634.028
483.13052	636.238
483.14636	648.054
483.1622	658.234
483.17804	649.132
483.19388	637.901
483.20972	635.122
483.22556	632.615
483.24139	634.937
483.25723	637.817
483.27307	644.18
483.28891	651.24
483.30475	648.319
483.32059	646.565
483.33643	643.809
483.35226	656.812
483.3681	661.942
483.38391	644.554
483.39975	637.515
483.41559	641.415
483.43143	640.233
483.44727	647.255
483.4631	653.949
483.47894	646.988
483.49478	648.544
483.51062	653.823
483.52646	647.721
483.5423	632.816
483.55814	610.718
483.57397	596.007
483.58981	590.866
483.60565	588.688
483.62149	597.176
483.63733	589.558
483.65317	580.95
483.66901	578.878
483.68484	583.437
483.70068	589.781
483.71652	594.343
483.73236	592.063
483.7482	591.234
483.76404	595.765
483.77985	600.529
483.79568	611.765
483.81152	615.381
483.82736	605.407
483.8432	600.893
483.85904	597.76
483.87488	589.277
483.89072	583.242
483.90656	584.32
483.92239	586.821
483.93823	585.036
483.95407	585.154
483.96991	590.881
483.98575	598.462
484.00159	603.641
484.01743	605.246
484.03326	610.072
484.0491	608.896
484.06494	595.716
484.08078	588.238
484.09662	586.465
484.11246	587.515
484.1283	592.925
484.14413	600.181
484.15997	600.817
484.17578	595.153
484.19162	591.367
484.20746	590.133
484.2233	591.367
484.23914	592.116
484.25497	592.183
484.27081	599.681
484.28665	603.961
484.30249	603.59
484.31833	601.797
484.33417	600.734
484.35001	600.755
484.36584	596.299
484.38168	582.336
484.39752	577.753
484.41336	579.666
484.4292	582.407
484.44504	584.469
484.46088	589.651
484.47672	590.746
484.49255	583.155
484.50839	584.596
484.52423	586.437
484.54007	588.962
484.55591	594.745
484.57172	594.56
484.58755	592.454
484.60339	592.973
484.61923	592.62
484.63507	593.366
484.65091	593.009
484.66675	593.012
484.68259	593.849
484.69843	595.934
484.71426	595.926
484.7301	592.911
484.74594	588.144
484.76178	583.943
484.77762	582.544
484.79346	584.174
484.8093	585.98
484.82513	585.479
484.84097	581.546
484.85681	580.832
484.87265	592.264
484.88849	590.239
484.90433	589.226
484.92017	590.387
484.936	591.244
484.95184	589.145
484.96765	586.207
484.98349	584.436
484.99933	587.779
485.01517	592.98
485.03101	593.904
485.04684	588.202
485.06268	576.899
485.07852	579.408
485.09436	592.581
485.1102	600.767
485.12604	598.595
485.14188	596.079
485.15771	592.484
485.17355	596.612
485.18939	603.363
485.20523	599.709
485.22107	595.257
485.23691	598.545
485.25275	599.868
485.26859	592.906
485.28442	590.837
485.30026	593.434
485.3161	590.1
485.33194	581.424
485.34778	580.157
485.36359	579.359
485.37943	584.455
485.39526	591.974
485.4111	592.214
485.42694	592.723
485.44278	590.48
485.45862	594.776
485.47446	597.205
485.4903	596.104
485.50613	593.395
485.52197	591.139
485.53781	595.331
485.55365	608.484
485.56949	618.244
485.58533	619.788
485.60117	617.567
485.617	617.861
485.63284	617.219
485.64868	609.55
485.66452	604.351
485.68036	599.772
485.6962	595.78
485.71204	593.781
485.72787	598.156
485.74371	595.814
485.75952	591.722
485.77536	591.958
485.7912	592.495
485.80704	594.484
485.82288	603.864
485.83871	608.288
485.85455	604.22
485.87039	606.114
485.88623	616.527
485.90207	620.199
485.91791	618.922
485.93375	613.55
485.94958	617.682
485.96542	626.123
485.98126	630.67
485.9971	632.373
486.01294	639.035
486.02878	643.216
486.04462	654.119
486.06046	675.476
486.07629	705.614
486.09213	761.977
486.10797	795.008
486.12381	798.228
486.13965	816.853
486.15546	815.39
486.1713	787.689
486.18713	747.271
486.20297	710.807
486.21881	680.062
486.23465	651.076
486.25049	632.466
486.26633	627.984
486.28217	630.767
486.298	627.343
486.31384	612.683
486.32968	607.193
486.34552	604.915
486.36136	606.341
486.3772	609.346
486.39304	609.899
486.40887	608.559
486.42471	601.579
486.44055	596.618
486.45639	597.541
486.47223	599.197
486.48807	603.106
486.50391	603.953
486.51974	598.345
486.53558	593.461
486.55139	593.798
486.56723	593.32
486.58307	593.602
486.59891	601.271
486.61475	598.808
486.63058	598.08
486.64642	603.498
486.66226	599.597
486.6781	593.21
486.69394	591.165
486.70978	595.846
486.72562	602.51
486.74146	601.796
486.75729	595.97
486.77313	592.873
486.78897	591.769
486.80481	596.144
486.82065	603.622
486.83649	605.532
486.85233	599.897
486.86816	591.753
486.884	586.517
486.89984	586.37
486.91568	583.274
486.93152	578.765
486.94733	579.065
486.96317	578.116
486.979	572.379
486.99484	572.969
487.01068	584.376
487.02652	592.2
487.04236	593.134
487.0582	599.456
487.07404	605.682
487.08987	599.553
487.10571	589.479
487.12155	591.987
487.13739	594.088
487.15323	594.026
487.16907	592.602
487.18491	592.523
487.20074	593.582
487.21658	595.227
487.23242	600.474
487.24826	602.851
487.2641	602.639
487.27994	602.703
487.29578	600
487.31161	595.852
487.32745	593.46
487.34326	590.021
487.3591	590.919
487.37494	583.898
487.39078	581.691
487.40662	590.662
487.42245	593.922
487.43829	595.155
487.45413	594.094
487.46997	592.453
487.48581	594.009
487.50165	598.125
487.51749	600.311
487.53333	596.017
487.54916	593.378
487.565	593.416
487.58084	588.168
487.59668	592.119
487.61252	591.539
487.62836	591.552
487.6442	599.521
487.66003	593.334
487.67587	589.088
487.69171	593.466
487.70755	593.023
487.72339	591.952
487.7392	590.72
487.75504	587.076
487.77087	586.868
487.78671	588.636
487.80255	589.39
487.81839	587.27
487.83423	589.054
487.85007	591.583
487.86591	592.538
487.88174	581.585
487.89758	573.834
487.91342	575.083
487.92926	577.432
487.9451	581.731
487.96094	585.869
487.97678	588.214
487.99261	589.067
488.00845	593.664
488.02429	592.631
488.04013	589.165
488.05597	588.514
488.07181	591.042
488.08765	597.527
488.10349	599.729
488.11932	594.73
488.13513	589.304
488.15097	590.579
488.16681	597.359
488.18265	599.79
488.19849	600.261
488.21432	593.464
488.23016	583.412
488.246	583.205
488.26184	588.831
488.27768	593.217
488.29352	591.799
488.30936	587.589
488.3252	586.002
488.34103	587.428
488.35687	585.765
488.37271	586.471
488.38855	591.059
488.40439	587.509
488.42023	590.256
488.43607	592.024
488.4519	590.492
488.46774	590.848
488.48358	589.658
488.49942	591.366
488.51526	596.022
488.53107	595.699
488.54691	594.844
488.56274	592.731
488.57858	590.69
488.59442	593.912
488.61026	592.523
488.6261	586.754
488.64194	594.315
488.65778	595.551
488.67361	592.202
488.68945	589.923
488.70529	591.835
488.72113	587.041
488.73697	583.283
488.75281	586.014
488.76865	586.564
488.78448	585.862
488.80032	595.974
488.81616	591.591
488.832	580.493
488.84784	583.209
488.86368	590.18
488.87952	593.305
488.89536	592.872
488.91119	593.933
488.927	594.772
488.94284	592.022
488.95868	588.69
488.97452	589.039
488.99036	591.196
489.0062	592.024
489.02203	594.306
489.03787	585.218
489.05371	583.871
489.06955	592.196
489.08539	593.15
489.10123	591.263
489.11707	590.668
489.1329	592.606
489.14874	590.675
489.16458	590.211
489.18042	593.179
489.19626	592.786
489.2121	594.904
489.22794	587.233
489.24377	586.376
489.25961	591.602
489.27545	590.92
489.29129	589.175
489.30713	589.078
489.32294	588.802
489.33878	592.273
489.35461	588.125
489.37045	584.396
489.38629	587.772
489.40213	581.797
489.41797	580.956
489.43381	586.962
489.44965	577.093
489.46548	579.624
489.48132	593.739
489.49716	599.667
489.513	599.323
489.52884	598.912
489.54468	598.392
489.56052	593.077
489.57635	593.337
489.59219	599.924
489.60803	609.747
489.62387	624.425
489.63971	632.073
489.65555	635.06
489.67139	621.362
489.68723	597.155
489.70306	589.942
489.71887	585.978
489.73471	585.978
489.75055	584.558
489.76639	586.887
489.78223	592.388
489.79807	596.766
489.8139	591.175
489.82974	586.873
489.84558	589.638
489.86142	600.025
489.87726	591.17
489.8931	583.468
489.90894	588.865
489.92477	597.894
489.94061	606.104
489.95645	604.493
489.97229	594.032
489.98813	583.026
490.00397	579.473
490.01981	583.896
490.03564	581.895
490.05148	577.774
490.06732	580.905
490.08316	580.901
490.099	587.09
490.11481	597.965
490.13065	604.481
490.14648	600.502
490.16232	592.11
490.17816	591.054
490.194	587.605
490.20984	586.457
490.22568	597.45
490.24152	610.655
490.25735	613.84
490.27319	614.355
490.28903	599.794
490.30487	584.519
490.32071	585.963
490.33655	588.643
490.35239	587.02
490.36823	583.7
490.38406	587.464
490.3999	590.661
490.41574	589.354
490.43158	586.197
490.44742	590.313
490.46326	601.392
490.4791	597.424
490.49493	585.242
490.51074	579.488
490.52658	582.95
490.54242	587.137
490.55826	586.532
490.5741	586.332
490.58994	588.249
490.60577	593.698
490.62161	595.833
490.63745	599.496
490.65329	592.688
490.66913	584.317
490.68497	590.854
490.70081	585.847
490.71664	586.24
490.73248	583.169
490.74832	582.549
490.76416	584.423
490.78	588.937
490.79584	593.653
490.81168	598.776
490.82751	589.655
490.84335	580.947
490.85919	591.497
490.87503	596.944
490.89087	585.592
490.90668	585.725
490.92252	593.512
490.93835	607.099
490.95419	610.601
490.97003	604.694
490.98587	600.194
491.00171	594.639
491.01755	597.576
491.03339	601.681
491.04922	592.83
491.06506	581.077
491.0809	589.613
491.09674	585.795
491.11258	601.91
491.12842	598.952
491.14426	594.507
491.1601	595.637
491.17593	606.669
491.19177	605.38
491.20761	596.313
491.22345	596.051
491.23929	596.936
491.25513	605.361
491.27097	623.033
491.2868	632.482
491.30261	628.737
491.31845	608.844
491.33429	590.62
491.35013	594.455
491.36597	600.12
491.38181	597.433
491.39764	600.507
491.41348	601.98
491.42932	600.792
491.44516	600.91
491.461	606.158
491.47684	606.22
491.49268	598.268
491.50851	589.836
491.52435	591.134
491.54019	595.501
491.55603	591.729
491.57187	591.219
491.58771	595.21
491.60355	597.297
491.61938	597.973
491.63522	593.263
491.65106	591.903
491.6669	592.708
491.68274	589.376
491.69855	587.429
491.71439	586.376
491.73022	586.173
491.74606	591.19
491.7619	589.468
491.77774	583.607
491.79358	586.231
491.80942	589.51
491.82526	586.834
491.84109	591.284
491.85693	593.767
491.87277	601.739
491.88861	613.019
491.90445	622.087
491.92029	634.098
491.93613	635.982
491.95197	624.351
491.9678	614.586
491.98364	607.143
491.99948	599.656
492.01532	592.864
492.03116	596.209
492.047	601.343
492.06284	598.667
492.07867	593.235
492.09448	590.131
492.11032	595.611
492.12616	591.574
492.142	587.694
492.15784	583.218
492.17368	583.194
492.18951	587.684
492.20535	598.926
492.22119	603.868
492.23703	597.525
492.25287	593.435
492.26871	594.702
492.28455	594.26
492.30038	592.663
492.31622	597.161
492.33206	597.336
492.3479	598.308
492.36374	603.024
492.37958	596.229
492.39542	608.908
492.41125	606.752
492.42709	617.182
492.44293	611.215
492.45877	601.654
492.47461	602.03
492.49042	604.832
492.50626	601.725
492.52209	592.659
492.53793	588.801
492.55377	595.682
492.56961	593.002
492.58545	588.778
492.60129	591.94
492.61713	590.581
492.63297	587.345
492.6488	594.035
492.66464	599.921
492.68048	599.408
492.69632	599.17
492.71216	599.009
492.728	596.741
492.74384	597.35
492.75967	603.168
492.77551	606.997
492.79135	602.204
492.80719	597.428
492.82303	599.796
492.83887	604.865
492.85471	614.977
492.87054	627.14
492.88635	623.676
492.90219	613.341
492.91803	612.067
492.93387	603.936
492.94971	601.766
492.96555	602.403
492.98138	600.752
492.99722	593.495
493.01306	597.474
493.0289	603.106
493.04474	597.596
493.06058	587.741
493.07642	589.208
493.09225	597.857
493.10809	613.703
493.12393	622.355
493.13977	611.844
493.15561	598.382
493.17145	604.768
493.18729	608.531
493.20313	609.717
493.21896	615.868
493.2348	615.138
493.25064	607.368
493.26648	600.928
493.28229	600.062
493.29813	600.044
493.31396	601.403
493.3298	611.016
493.34564	611.547
493.36148	607.197
493.37732	601.821
493.39316	594.344
493.409	608.82
493.42484	615.858
493.44067	602.423
493.45651	590.003
493.47235	585.209
493.48819	592.59
493.50403	602.554
493.51987	607.46
493.53571	603.431
493.55154	598.409
493.56738	588.727
493.58322	580.522
493.59906	589.997
493.6149	588.149
493.63074	582.138
493.64658	585.37
493.66241	592.724
493.67822	589.795
493.69406	585.792
493.7099	589.253
493.72574	591.188
493.74158	592.094
493.75742	595.438
493.77325	596.924
493.78909	588.911
493.80493	596.101
493.82077	602.318
493.83661	608.144
493.85245	621.722
493.86829	624.947
493.88412	616.701
493.89996	604.906
493.9158	593.724
493.93164	593.008
493.94748	596.215
493.96332	589.964
493.97916	585.716
493.995	587.148
494.01083	590.601
494.02667	592.219
494.04251	593.547
494.05835	596.206
494.07416	600.438
494.09	603.932
494.10583	601.463
494.12167	588.87
494.13751	585.407
494.15335	589.697
494.16919	597.201
494.18503	606.679
494.20087	606.57
494.21671	601.856
494.23254	603.539
494.24838	605.563
494.26422	600.314
494.28006	599.877
494.2959	602.464
494.31174	592.107
494.32758	583.772
494.34341	588.888
494.35925	599.839
494.37509	600.08
494.39093	586.182
494.40677	577.692
494.42261	579.15
494.43845	583.264
494.45428	587.32
494.47009	586.936
494.48593	580.363
494.50177	582.389
494.51761	590.16
494.53345	601.704
494.54929	603.928
494.56512	599.74
494.58096	599.053
494.5968	590.616
494.61264	589.858
494.62848	590.674
494.64432	597.192
494.66016	594.896
494.67599	591.673
494.69183	588.643
494.70767	582.774
494.72351	581.316
494.73935	590.769
494.75519	591.98
494.77103	596.996
494.78687	605.388
494.8027	607.69
494.81854	598.012
494.83438	602.051
494.85022	608.484
494.86603	630.571
494.88187	616.38
494.89771	614.242
494.91354	600.704
494.92938	588.758
494.94522	585.702
494.96106	586.248
494.9769	589.984
494.99274	593.806
495.00858	593.917
495.02441	592.333
495.04025	591.09
495.05609	584.72
495.07193	585.047
495.08777	592.341
495.10361	587.731
495.11945	593.354
495.13528	599.441
495.15112	598.259
495.16696	601.859
495.1828	595.85
495.19864	588.781
495.21448	589.996
495.23032	591.566
495.24615	590.301
495.26196	589.192
495.2778	591.362
495.29364	597.649
495.30948	606.533
495.32532	603.761
495.34116	598.782
495.35699	598.635
495.37283	597.4
495.38867	591.705
495.40451	590.871
495.42035	593.316
495.43619	591.466
495.45203	587.885
495.46786	590.176
495.4837	593.631
495.49954	595.229
495.51538	599.665
495.53122	608.32
495.54706	609.971
495.5629	598.44
495.57874	589.166
495.59457	586.791
495.61041	589.764
495.62625	588.365
495.64209	581.801
495.6579	586.233
495.67374	591.261
495.68958	595.307
495.70541	595.216
495.72125	589.544
495.73709	587.537
495.75293	590.477
495.76877	590.279
495.78461	587.523
495.80045	591.333
495.81628	593.751
495.83212	598.348
495.84796	611.643
495.8638	616.197
495.87964	593.262
495.89548	579.747
495.91132	591.236
495.92715	589.845
495.94299	597.48
495.95883	597.236
495.97467	590.506
495.99051	582.398
496.00635	581.696
496.02219	591.209
496.03802	602.315
496.05383	605.68
496.06967	603.447
496.08551	602.817
496.10135	601.957
496.11719	610.499
496.13303	606.985
496.14886	594.994
496.1647	595.668
496.18054	590.638
496.19638	587.02
496.21222	581.958
496.22806	585.39
496.2439	588.344
496.25974	587.651
496.27557	592.499
496.29141	601.048
496.30725	599.365
496.32309	593.077
496.33893	591.67
496.35477	586.823
496.37061	583.117
496.38644	584.989
496.40228	586.719
496.41812	586.689
496.43396	591.835
496.44977	595.723
496.46561	590.391
496.48145	589.812
496.49728	588.52
496.51312	585.08
496.52896	588.073
496.5448	593.027
496.56064	589.006
496.57648	582.301
496.59232	575.274
496.60815	574.889
496.62399	582.008
496.63983	590.167
496.65567	589.106
496.67151	589.503
496.68735	596.617
496.70319	595.13
496.71902	588.477
496.73486	586.053
496.7507	591.357
496.76654	599.396
496.78238	600.103
496.79822	597.023
496.81406	600.968
496.8299	607.257
496.8457	605.386
496.86154	600.661
496.87738	593.083
496.89322	585.004
496.90906	579.031
496.9249	579.253
496.94073	593.747
496.95657	592.817
496.97241	587.77
496.98825	580.094
497.00409	581.437
497.01993	592.554
497.03577	596.824
497.05161	593.537
497.06744	587.825
497.08328	578.923
497.09912	573.796
497.11496	574.076
497.1308	579.705
497.14664	593.281
497.16248	603.682
497.17831	587.318
497.19415	582.189
497.20999	586.219
497.22583	597.59
497.24164	609.133
497.25748	609.485
497.27332	604.217
497.28915	600.644
497.30499	597.157
497.32083	591.531
497.33667	593.155
497.35251	594.342
497.36835	588.916
497.38419	577.4
497.40002	574.741
497.41586	576.973
497.4317	576.437
497.44754	581.376
497.46338	582.454
497.47922	585.758
497.49506	588.786
497.51089	585.766
497.52673	583.1
497.54257	583.648
497.55841	581.599
497.57425	588.608
497.59009	588.311
497.60593	583.922
497.62177	585.872
497.63757	594.853
497.65341	601.634
497.66925	607.888
497.68509	599.003
497.70093	590.133
497.71677	594.652
497.7326	593.155
497.74844	587.98
497.76428	586.564
497.78012	590.447
497.79596	592.89
497.8118	584.731
497.82764	585.49
497.84348	594.104
497.85931	597.551
497.87515	594.71
497.89099	596.056
497.90683	600.602
497.92267	595.786
497.93851	584.212
497.95435	586.12
497.97018	594.754
497.98602	596.842
498.00186	593.917
498.0177	586.104
498.03351	587.2
498.04935	594.786
498.06519	598.959
498.08102	592.761
498.09686	583.238
498.1127	576.402
498.12854	573.536
498.14438	574.826
498.16022	578.312
498.17606	582.199
498.19189	581.3
498.20773	584.093
498.22357	592.025
498.23941	586.359
498.25525	587.144
498.27109	589.848
498.28693	594.77
498.30276	594.608
498.3186	589.066
498.33444	582.967
498.35028	578.753
498.36612	574.087
498.38196	571.825
498.3978	580.178
498.41364	586.728
498.42944	591.028
498.44528	590.99
498.46112	583.379
498.47696	586.86
498.4928	594.901
498.50864	599.93
498.52448	606.615
498.54031	605.641
498.55615	604.802
498.57199	613.163
498.58783	616.873
498.60367	611.681
498.61951	596.234
498.63535	591.718
498.65118	597.963
498.66702	596.94
498.68286	596.549
498.6987	599.91
498.71454	595.641
498.73038	584.663
498.74622	581.872
498.76205	585.06
498.77789	587.254
498.79373	590.933
498.80957	593.956
498.82538	593.589
498.84122	595.786
498.85706	595.101
498.87289	580.659
498.88873	578.04
498.90457	576.719
498.92041	576.918
498.93625	582.049
498.95209	581.596
498.96793	578.101
498.98376	578.344
498.9996	586.328
499.01544	588.232
499.03128	581.903
499.04712	581.245
499.06296	585.37
499.0788	583.953
499.09464	585.415
499.11047	593.227
499.12631	587.965
499.14215	583.408
499.15799	580.144
499.17383	574.42
499.18967	576.745
499.20551	578.837
499.22131	585.267
499.23715	590.767
499.25299	591.722
499.26883	590.129
499.28467	585.516
499.30051	580.432
499.31635	582.677
499.33218	585.342
499.34802	586.243
499.36386	592.907
499.3797	596.994
499.39554	602.847
499.41138	601.275
499.42722	597.965
499.44305	600.719
499.45889	604.295
499.47473	599.467
499.49057	591.145
499.50641	588.79
499.52225	591.45
499.53809	597.814
499.55392	598.094
499.56976	595.712
499.5856	596.869
499.60144	594.506
499.61725	589.363
499.63309	587.39
499.64893	592.751
499.66476	594.644
499.6806	587.112
499.69644	586.666
499.71228	585.689
499.72812	587.08
499.74396	589.496
499.7598	596.698
499.77563	596.766
499.79147	588.912
499.80731	581.865
499.82315	578.75
499.83899	584.402
499.85483	593.58
499.87067	594.007
499.88651	589.175
499.90234	582.237
499.91818	576.684
499.93402	582.131
499.94986	588.96
499.9657	593.586
499.98154	594.524
499.99738	595.267
500.01318	597.608
500.02902	597.813
500.04486	597.382
500.0607	595.688
500.07654	594.394
500.09238	589.486
500.10822	580.206
500.12405	583.99
500.13989	582.882
500.15573	582.299
500.17157	590.174
500.18741	581.267
500.20325	579.632
500.21909	581.221
500.23492	584.994
500.25076	594.217
500.2666	604.878
500.28244	616.036
500.29828	615.6
500.31412	610.021
500.32996	599.197
500.34579	591.941
500.36163	586.286
500.37747	585.998
500.39331	582.289
500.40912	585.075
500.42496	593.133
500.4408	595.466
500.45663	601.363
500.47247	599.3
500.48831	598.46
500.50415	601.833
500.51999	604.997
500.53583	604.405
500.55167	605.506
500.5675	602.16
500.58334	593.638
500.59918	588.327
500.61502	590.508
500.63086	590.021
500.6467	585.933
500.66254	589.197
500.67838	591.072
500.69421	597.6
500.71005	597.576
500.72589	600.272
500.74173	597.15
500.75757	590.8
500.77341	592.046
500.78925	597.695
500.80505	605.182
500.82089	598.813
500.83673	592.392
500.85257	601.034
500.86841	610.511
500.88425	596.335
500.90009	586.657
500.91592	577.318
500.93176	583.611
500.9476	597.89
500.96344	602.253
500.97928	603.343
500.99512	598.165
501.01096	597.756
501.02679	602.722
501.04263	606.548
501.05847	607.502
501.07431	620.28
501.09015	627.325
501.10599	611.176
501.12183	596.424
501.13766	593.406
501.1535	596.711
501.16934	610.443
501.18518	597.313
501.20102	589.829
501.21683	606.651
501.23267	621.832
501.2485	626.119
501.26434	606.396
501.28018	587.917
501.29602	581.914
501.31186	590.916
501.3277	599.887
501.34354	599.998
501.35938	598.571
501.37521	614.023
501.39105	624.084
501.40689	612.234
501.42273	605.531
501.43857	612.194
501.45441	612.242
501.47025	625.395
501.48608	610.54
501.50192	599.517
501.51776	596.772
501.5336	595.651
501.54944	601.981
501.56528	602.843
501.58112	605.971
501.59695	602.05
501.61276	598.73
501.6286	596.245
501.64444	588.816
501.66028	587.064
501.67612	590.74
501.69196	588.146
501.70779	582.839
501.72363	584.224
501.73947	588.159
501.75531	590.649
501.77115	590.944
501.78699	590.06
501.80283	588.348
501.81866	585.19
501.8345	592.704
501.85034	590.815
501.86618	605.258
501.88202	617.004
501.89786	619.476
501.9137	614
501.92953	603.674
501.94537	615.296
501.96121	622.505
501.97705	610.316
501.99289	598.978
502.0087	596.193
502.02454	596.939
502.04037	602.766
502.05621	608.758
502.07205	608.931
502.08789	605.508
502.10373	600.91
502.11957	599.834
502.13541	612.425
502.15125	609.741
502.16708	603.104
502.18292	595.689
502.19876	613.862
502.2146	619.195
502.23044	623.577
502.24628	617.184
502.26212	609.291
502.27795	602.397
502.29379	591.298
502.30963	588.228
502.32547	591.828
502.34131	594.14
502.35715	593.262
502.37299	586.644
502.38882	587.362
502.40463	589.426
502.42047	595.775
502.43631	606.439
502.45215	596.794
502.46799	591.241
502.48383	607.753
502.49966	606.477
502.5155	597.707
502.53134	597.385
502.54718	594.983
502.56302	599.096
502.57886	603.806
502.5947	604.482
502.61053	600.076
502.62637	600.427
502.64221	596.6
502.65805	593.599
502.67389	596.558
502.68973	602.007
502.70557	602.845
502.72141	605.981
502.73724	613.114
502.75308	626.36
502.76892	633.028
502.78476	620.216
502.80057	611.181
502.81641	608.869
502.83224	606.794
502.84808	602.339
502.86392	603.46
502.87976	605.547
502.8956	608.351
502.91144	623.122
502.92728	617.422
502.94312	605.364
502.95895	611.001
502.97479	610.204
502.99063	611.697
503.00647	612.392
503.02231	604.522
503.03815	600.684
503.05399	601.594
503.06982	601.24
503.08566	598.346
503.1015	597.194
503.11734	594.567
503.13318	587.842
503.14902	593.733
503.16486	588.312
503.18069	594.675
503.1965	587.798
503.21234	580.17
503.22818	595.117
503.24402	593.915
503.25986	592.757
503.2757	598.165
503.29153	599.353
503.30737	593.515
503.32321	589.19
503.33905	583.765
503.35489	576.462
503.37073	579.911
503.38657	590.889
503.4024	597.607
503.41824	602.641
503.43408	596.11
503.44992	603.754
503.46576	597.84
503.4816	590.998
503.49744	584.167
503.51328	581.802
503.52911	590.989
503.54495	600.542
503.56079	599.909
503.57663	596.763
503.59244	601.499
503.60828	607.229
503.62411	602.596
503.63995	598.657
503.65579	598.254
503.67163	586.092
503.68747	582.906
503.70331	588.958
503.71915	594.956
503.73499	595.019
503.75082	599.074
503.76666	606.958
503.7825	611.25
503.79834	611.186
503.81418	603.852
503.83002	602.97
503.84586	603.285
503.86169	607.026
503.87753	594.1
503.89337	584.432
503.90921	592.611
503.92505	603.891
503.94089	595.707
503.95673	597.204
503.97256	600.332
503.98837	601.039
504.00421	605.47
504.02005	603.239
504.03589	593.539
504.05173	587.756
504.06757	586.507
504.0834	590.582
504.09924	581.231
504.11508	574.047
504.13092	572.45
504.14676	572.857
504.1626	590.536
504.17844	587.222
504.19427	589.247
504.21011	585.111
504.22595	587.49
504.24179	598.698
504.25763	612.816
504.27347	611.818
504.28931	607.157
504.30515	612.715
504.32098	616.462
504.33682	610.167
504.35266	603.205
504.3685	597.042
504.38431	589.026
504.40015	589.793
504.41599	599.888
504.43182	617.804
504.44766	616.535
504.4635	601.394
504.47934	600.215
504.49518	597.915
504.51102	603.76
504.52686	605.883
504.54269	599.055
504.55853	604.701
504.57437	603.444
504.59021	595.483
504.60605	597.195
504.62189	599.655
504.63773	590.202
504.65356	582.268
504.6694	587.143
504.68524	594.374
504.70108	594.797
504.71692	588.295
504.73276	591.867
504.7486	586.242
504.76443	588.165
504.78024	592.871
504.79608	598.339
504.81192	597.785
504.82776	599.044
504.8436	591.489
504.85944	580.515
504.87527	575.12
504.89111	580.615
504.90695	583.22
504.92279	581.302
504.93863	589.716
504.95447	595.853
504.97031	594.026
504.98615	592.753
505.00198	594.511
505.01782	607.027
505.03366	623.372
505.0495	632.723
505.06534	628.639
505.08118	614.373
505.09702	602.944
505.11285	615.628
505.12869	630.851
505.14453	623.901
505.16037	629.757
505.17618	620.611
505.19202	610.947
505.20786	606.15
505.22369	608.38
505.23953	604.833
505.25537	599.437
505.27121	593.24
505.28705	597.26
505.30289	595.644
505.31873	588.465
505.33456	588.99
505.3504	588.562
505.36624	589.308
505.38208	593.499
505.39792	587.781
505.41376	590.871
505.4296	599.624
505.44543	608.588
505.46127	594.771
505.47711	594.158
505.49295	594.67
505.50879	592.607
505.52463	590.367
505.54047	593.104
505.5563	594.106
505.57211	587.573
505.58795	589.46
505.60379	595.471
505.61963	596.251
505.63547	602.696
505.65131	605.132
505.66714	594.251
505.68298	581.568
505.69882	581.631
505.71466	587.323
505.7305	588.227
505.74634	594.33
505.76218	603.951
505.77802	614.594
505.79385	626.095
505.80969	621.546
505.82553	616.028
505.84137	609.337
505.85721	592.697
505.87305	588.535
505.88889	595.405
505.90472	605.524
505.92056	610.382
505.9364	610.4
505.95224	608.512
505.96805	603.227
505.98389	597.252
505.99973	602.299
506.01556	612.728
506.0314	602.994
506.04724	598.445
506.06308	594.685
506.07892	597.97
506.09476	601.286
506.1106	600.672
506.12643	601.512
506.14227	598.874
506.15811	578.692
506.17395	576.262
506.18979	584.836
506.20563	590.959
506.22147	608.726
506.2373	604.452
506.25314	600.32
506.26898	601.325
506.28482	600.46
506.30066	596.604
506.3165	595.791
506.33234	591.1
506.34818	588.956
506.36398	592.003
506.37982	593.217
506.39566	579.711
506.4115	583.291
506.42734	587.615
506.44318	604.034
506.45901	595.718
506.47485	603.67
506.49069	602.811
506.50653	611.051
506.52237	628.243
506.53821	629.334
506.55405	619.049
506.56989	609.841
506.58572	606.03
506.60156	606.948
506.6174	606.495
506.63324	601.398
506.64908	603.905
506.66492	612.18
506.68076	608.092
506.69659	593.012
506.71243	586.047
506.72827	589.688
506.74411	602.369
506.75992	604.384
506.77576	610.935
506.7916	604.608
506.80743	594.301
506.82327	589.065
506.83911	585.524
506.85495	583.264
506.87079	578.778
506.88663	574.037
506.90247	578.767
506.9183	583.063
506.93414	585.298
506.94998	584.445
506.96582	582.253
506.98166	578.663
506.9975	574.28
507.01334	577.273
507.02917	590.392
507.04501	605.189
507.06085	606.553
507.07669	602.937
507.09253	616.273
507.10837	613.247
507.12421	615.325
507.14005	613.65
507.15585	616.95
507.17169	614.619
507.18753	611.278
507.20337	631.499
507.21921	646.944
507.23505	637.812
507.25089	619.651
507.26672	610.777
507.28256	605.38
507.2984	610.633
507.31424	612.408
507.33008	607.772
507.34592	607.96
507.36176	602.105
507.37759	602.833
507.39343	598.688
507.40927	597.757
507.42511	605.112
507.44095	618.645
507.45679	605.962
507.47263	607.251
507.48846	610.883
507.5043	594.559
507.52014	596.931
507.53598	599.224
507.55179	594.322
507.56763	590.205
507.58347	593.592
507.5993	596.267
507.61514	593.41
507.63098	588.648
507.64682	585.253
507.66266	589.561
507.6785	596.291
507.69434	594.847
507.71017	605.147
507.72601	596.324
507.74185	593.563
507.75769	590.154
507.77353	600.603
507.78937	603.834
507.80521	605.724
507.82104	605.97
507.83688	601.703
507.85272	606.708
507.86856	616.855
507.8844	626.814
507.90024	642.825
507.91608	654.602
507.93192	647.321
507.94772	629.382
507.96356	618.602
507.9794	618.299
507.99524	617.818
508.01108	623.398
508.02692	611.188
508.04276	596.311
508.05859	593.684
508.07443	601.642
508.09027	603.038
508.10611	602.47
508.12195	611.242
508.13779	627.001
508.15363	621.288
508.16946	607.577
508.1853	595.467
508.20114	588.346
508.21698	587.728
508.23282	587.326
508.24866	588.837
508.2645	582.728
508.28033	576.754
508.29617	573.614
508.31201	572.494
508.32785	570.936
508.34366	574.029
508.3595	583.881
508.37534	594.355
508.39117	596.337
508.40701	594.351
508.42285	596.361
508.43869	609.134
508.45453	605.183
508.47037	599.005
508.48621	594.798
508.50204	607.343
508.51788	625.775
508.53372	623.239
508.54956	621.391
508.5654	632.799
508.58124	634.635
508.59708	626.926
508.61292	615.575
508.62875	607.01
508.64459	608.165
508.66043	601.901
508.67627	592.974
508.69211	599.52
508.70795	604.525
508.72379	600.814
508.73959	606.382
508.75543	604.841
508.77127	612.73
508.78711	620.205
508.80295	621.449
508.81879	621.495
508.83463	614.536
508.85046	603.115
508.8663	604.54
508.88214	604.734
508.89798	597.661
508.91382	596
508.92966	597.689
508.9455	589.932
508.96133	590.846
508.97717	594.738
508.99301	590.02
509.00885	588.118
509.02469	582.466
509.04053	576.2
509.05637	586.977
509.0722	580.26
509.08804	580.346
509.10388	592.958
509.11972	589.771
509.13553	583.646
509.15137	583.536
509.16721	600.917
509.18304	622.645
509.19888	620.37
509.21472	624.016
509.23056	636.318
509.2464	641.14
509.26224	625.544
509.27808	607.381
509.29391	601.117
509.30975	602.365
509.32559	592.41
509.34143	598.721
509.35727	613.693
509.37311	609.819
509.38895	607.489
509.40479	602.803
509.42062	607.935
509.43646	614.719
509.4523	619.523
509.46814	618.285
509.48398	617.015
509.49982	604.176
509.51566	586.991
509.53146	579.952
509.5473	580.459
509.56314	588.142
509.57898	594.1
509.59482	591.207
509.61066	586.122
509.6265	587.737
509.64233	589.113
509.65817	591.198
509.67401	588.683
509.68985	591.697
509.70569	576.295
509.72153	586.23
509.73737	589.715
509.7532	597.451
509.76904	592.978
509.78488	592.853
509.80072	599.622
509.81656	607.818
509.8324	614.058
509.84824	617.141
509.86407	625.055
509.87991	629.989
509.89575	625.637
509.91159	608.99
509.9274	606.157
509.94324	617.628
509.95908	612.952
509.97491	618.161
509.99075	630.017
510.00659	621.976
510.02243	623.253
510.03827	624.425
510.05411	620.603
510.06995	598.182
510.08578	586.445
510.10162	584.399
510.11746	588.832
510.1333	588.239
510.14914	587.272
510.16498	590.066
510.18082	594.358
510.19666	589.614
510.21249	598.563
510.22833	607.344
510.24417	598.926
510.26001	603.269
510.27585	607.472
510.29169	600.281
510.30753	594.444
510.32333	589.39
510.33917	582.772
510.35501	582.983
510.37085	586.272
510.38669	596.628
510.40253	600.835
510.41837	599.671
510.4342	596.707
510.45004	591.681
510.46588	593.374
510.48172	609.81
510.49756	611.216
510.5134	606.677
510.52924	610.462
510.54507	616.473
510.56091	623.484
510.57675	619.397
510.59259	613.674
510.60843	613.026
510.62427	609.216
510.64011	621.343
510.65594	619.065
510.67178	609.333
510.68762	616.609
510.70346	611.964
510.71927	610.038
510.73511	607.153
510.75095	600.096
510.76678	596.148
510.78262	590.954
510.79846	587.636
510.8143	585.315
510.83014	588.022
510.84598	587.061
510.86182	590.194
510.87766	591.698
510.89349	596.457
510.90933	603.022
510.92517	602.871
510.94101	605.802
510.95685	606.776
510.97269	596.063
510.98853	588.139
511.00436	591.786
511.0202	594.389
511.03604	595.664
511.05188	597.792
511.06772	602.705
511.08356	606.228
511.0994	597.692
511.1152	589.214
511.13104	580.344
511.14688	579.13
511.16272	585.748
511.17856	583.538
511.1944	578.905
511.21024	585.025
511.22607	591.571
511.24191	596.766
511.25775	598.019
511.27359	593.885
511.28943	594.614
511.30527	597.448
511.32111	592.133
511.33694	594.538
511.35278	603.672
511.36862	617.239
511.38446	611.963
511.4003	612.017
511.41614	605.106
511.43198	596.692
511.44781	605.055
511.46365	601.66
511.47949	594.021
511.49533	602.207
511.51114	608.682
511.52698	615.025
511.54282	607.19
511.55865	607.376
511.57449	601.808
511.59033	595.946
511.60617	597.676
511.62201	607.24
511.63785	606.083
511.65369	598.343
511.66953	604.754
511.68536	612.146
511.7012	611.447
511.71704	603.306
511.73288	598.616
511.74872	599.202
511.76456	600.581
511.7804	606.787
511.79623	603.219
511.81207	593.761
511.82791	593.682
511.84375	596.973
511.85959	590.013
511.87543	591.876
511.89127	595.124
511.90707	594.199
511.92291	605.209
511.93875	606.193
511.95459	611.482
511.97043	601.921
511.98627	596.193
512.00214	590.035
512.01794	597.172
512.03381	600.023
512.04962	600.914
512.06549	604.78
512.0813	607.708
512.09711	611.939
512.11298	614.362
512.12878	603.657
512.14465	598.556
512.16046	597.312
512.17633	595.972
512.19214	599.657
512.20801	600.742
512.22382	614.295
512.23969	626.211
512.25549	621.511
512.27136	621.843
512.28717	622.075
512.30304	611.852
512.31885	605.178
512.33472	607.325
512.35052	617.681
512.36639	611.17
512.3822	608.031
512.39807	620.724
512.41388	612.194
512.42975	605.66
512.44556	618.87
512.46143	630.178
512.47723	618.826
512.49304	623.549
512.50891	616.778
512.52472	602.194
512.54059	605.092
512.5564	611.035
512.57227	600.916
512.58807	596.904
512.60394	602.585
512.61975	609.041
512.63562	595.44
512.65143	596.517
512.6673	597.101
512.68311	595.516
512.69897	593.261
512.71478	590.391
512.73065	604.556
512.74646	624.011
512.76233	629.148
512.77814	623.859
512.79401	629.855
512.80981	626.002
512.82568	645.415
512.84149	621.182
512.85736	610.431
512.87317	607.992
512.88898	601.107
512.90485	602.197
512.92065	592.944
512.93652	588.103
512.95233	607.386
512.9682	627.644
512.98401	633.915
512.99988	620.352
513.01569	622.692
513.03156	620.648
513.04736	611.773
513.06323	600.551
513.07904	606.76
513.09491	621.402
513.11072	612.682
513.12659	600.846
513.1424	597.665
513.15826	597.339
513.17407	597.564
513.18994	600.511
513.20575	601.867
513.22162	606.893
513.23743	618.991
513.2533	629
513.2691	633.073
513.28491	638.615
513.30078	633.464
513.31659	637.536
513.33246	644.564
513.34827	630.318
513.36414	610.232
513.37994	606.056
513.39581	595.318
513.41162	590.603
513.42749	594.867
513.4433	600.885
513.45917	607.627
513.47498	602.086
513.49084	607.923
513.50665	614.948
513.52252	635.611
513.53833	618.635
513.5542	601.313
513.57001	607.32
513.58588	604.017
513.60168	599.335
513.61755	604.444
513.63336	597.116
513.64923	601
513.66504	601
513.68085	601.446
513.69672	601.312
513.71252	604.249
513.72839	607.521
513.7442	599.313
513.76007	596.215
513.77588	622.795
513.79175	632.803
513.80756	612.513
513.82343	626.133
513.83923	613.777
513.8551	612.769
513.87091	605.833
513.88678	601.858
513.90259	588.722
513.91846	589.622
513.93427	601.137
513.95013	609.773
513.96594	616.923
513.98181	623.709
513.99762	631.489
514.01349	637.841
514.0293	625.303
514.04517	619.197
514.06097	596.146
514.07678	593.923
514.09265	591
514.10846	591.498
514.12433	591.547
514.14014	595.609
514.15601	600.648
514.17181	603.18
514.18768	607.433
514.20349	597.85
514.21936	596.657
514.23517	589.918
514.25104	615.081
514.26685	640.953
514.28271	648.91
514.29852	647.842
514.31439	650.665
514.3302	632.506
514.34607	610.299
514.36188	590.871
514.37775	588.476
514.39355	590.731
514.40942	587.326
514.42523	585.468
514.4411	593.462
514.45691	608.468
514.47272	629.567
514.48859	627.359
514.50439	638.67
514.52026	646.983
514.53607	620.889
514.55194	604.609
514.56775	601.489
514.58362	599.615
514.59943	603.627
514.6153	605.841
514.6311	606
514.64697	587.936
514.66278	587.352
514.67865	590.453
514.69446	600.785
514.71033	620.27
514.72614	627.128
514.742	630.429
514.75781	626.052
514.77368	605.687
514.78949	611.197
514.80536	601.567
514.82117	598.316
514.83704	589.12
514.85284	591.858
514.86865	590.27
514.88452	585.017
514.90033	598.451
514.9162	606.846
514.93201	618.326
514.94788	622.395
514.96368	623.073
514.97955	624.808
514.99536	620.953
515.01123	604.575
515.02704	603.026
515.04291	602.258
515.05872	597.086
515.07458	597.491
515.09039	602
515.10626	608.438
515.12207	625.034
515.13794	626.265
515.15375	639.76
515.16962	628.687
515.18542	631.841
515.20129	621.051
515.2171	602.322
515.23297	604.333
515.24878	605.966
515.26459	621.073
515.28046	613.262
515.29626	599.333
515.31213	598.219
515.32794	602.464
515.34381	615.017
515.35962	619.433
515.37549	634.755
515.3913	624
515.40717	623.543
515.42297	617.335
515.43884	602.764
515.45465	598
515.47052	610.684
515.48633	597.103
515.5022	602.069
515.51801	602.333
515.53387	625.918
515.54968	633
515.56555	645.841
515.58136	655
515.59723	654.193
515.61304	650.326
515.62891	618.419
515.64471	601.858
515.66058	598.167
515.67639	594.429
515.6922	595.299
515.70807	599.846
515.72388	606.592
515.73975	612.558
515.75555	620.491
515.77142	637.914
515.78723	632.137
515.8031	614.785
515.81891	629.564
515.83478	629.103
515.85059	603.451
515.86646	602.815
515.88226	591.248
515.89813	599.33
515.91394	597.725
515.92981	611.026
515.94562	626.88
515.96149	658.554
515.97729	660.961
515.99316	641.82
516.00897	625.423
516.02484	631.455
516.04065	613.858
516.05652	603.363
516.07233	609.082
516.08813	611.665
516.104	612.116
516.11981	617.365
516.13568	619.06
516.15149	612.348
516.16736	621.876
516.18317	634.67
516.19904	613.684
516.21484	621.773
516.23071	621.91
516.24652	612.476
516.26239	606.318
516.2782	602.064
516.29407	605.558
516.30988	614.841
516.32574	613.039
516.34155	616.094
516.35742	623.309
516.37323	644.425
516.3891	630.245
516.40491	612.436
516.42078	609.644
516.43658	607.91
516.45245	628.322
516.46826	638
516.48407	628.395
516.49994	640.893
516.51575	644
516.53162	639.043
516.54742	630.761
516.56329	636.412
516.5791	638.429
516.59497	623.579
516.61078	593.961
516.62665	592.667
516.64246	602.584
516.65833	604.687
516.67413	617.927
516.69	624.794
516.70581	635.88
516.72168	630.172
516.73749	612.459
516.75336	605.12
516.76917	607.3
516.78503	597.513
516.80084	604.107
516.81671	603.867
516.83252	598.738
516.84839	610.498
516.8642	615.633
516.88	619.708
516.89587	618.828
516.91168	614.073
516.92755	607.107
516.94336	603.902
516.95923	604.532
516.97504	602.605
516.99091	612.373
517.00671	620.996
517.02258	642.867
517.03839	633.721
517.05426	628.142
517.07007	621.451
517.08594	612.206
517.10175	606.468
517.11761	596.889
517.13342	600.807
517.14929	601.451
517.1651	588.502
517.18097	588.695
517.19678	601.701
517.21265	628.309
517.22845	638.468
517.24432	634.639
517.26013	633.803
517.27594	625.24
517.29181	609.129
517.30762	615.769
517.32349	609.082
517.33929	621.614
517.35516	631.811
517.37097	636.996
517.38684	620.517
517.40265	604.781
517.41852	605.841
517.43433	607
517.4502	613.97
517.466	614.142
517.48187	607.222
517.49768	608.33
517.51355	616.588
517.52936	633.253
517.54523	634.957
517.56104	641.639
517.5769	624.172
517.59271	613.949
517.60858	611.618
517.62439	622.056
517.64026	626.742
517.65607	636.365
517.67188	620.648
517.68774	606.781
517.70355	598.406
517.71942	599.742
517.73523	610.279
517.7511	583.425
517.76691	590.305
517.78278	606.322
517.79858	616.807
517.81445	622
517.83026	626.927
517.84613	638.837
517.86194	644.725
517.87781	636.755
517.89362	651.047
517.90948	639.408
517.92529	627.408
517.94116	634
517.95697	628.953
517.97284	610.318
517.98865	599.815
518.00452	603.764
518.02032	592.356
518.03619	583.18
518.052	585.453
518.06781	596.584
518.08368	606.455
518.09949	621.292
518.11536	635.455
518.13116	641.27
518.14703	642.97
518.16284	639.635
518.17871	613.395
518.19452	609.154
518.21039	594.318
518.2262	590.936
518.24207	592.592
518.25787	607.674
518.27374	592.738
518.28955	605.794
518.30542	590.236
518.32123	604.648
518.3371	628.859
518.35291	647.06
518.36877	656.395
518.38458	669.33
518.40045	659.064
518.41626	622.077
518.43213	604
518.44794	603.399
518.46375	599
518.47961	597.609
518.49542	597.286
518.51129	598.858
518.5271	601.412
518.54297	617.369
518.55878	630.099
518.57465	637.742
518.59045	628
518.60632	628.506
518.62213	623.433
518.638	608.635
518.65381	610.923
518.66968	615
518.68549	605.205
518.70135	604.863
518.71716	615.172
518.73303	619.159
518.74884	622.974
518.76471	629.841
518.78052	638.455
518.79639	641.021
518.81219	644.704
518.82806	648
518.84387	631.803
518.85968	594.258
518.87555	597.641
518.89136	593.124
518.90723	592.455
518.92303	612.815
518.9389	622.369
518.95471	631.652
518.97058	628.133
518.98639	628.94
519.00226	615.742
519.01807	612.803
519.03394	612.627
519.04974	619.099
519.06561	630.326
519.08142	615.082
519.09729	607.305
519.1131	608
519.12897	628.91
519.14478	627.927
519.16064	635.124
519.17645	630.348
519.19232	619.412
519.20813	607.768
519.224	598.588
519.23981	596.571
519.25562	612.249
519.27148	604.948
519.28729	601.373
519.30316	607.846
519.31897	625.279
519.33484	623.305
519.35065	607.103
519.36652	603.609
519.38232	607.034
519.39819	617.227
519.414	609.343
519.42987	617.197
519.44568	606.738
519.46155	605.245
519.47736	604
519.49323	603.395
519.50903	606.584
519.5249	617.949
519.54071	612.481
519.55658	617.725
519.57239	626.15
519.58826	607.85
519.60406	607.236
519.61993	607.597
519.63574	618.846
519.65155	620.064
519.66742	619
519.68323	628.614
519.6991	623.773
519.7149	630.167
519.73077	622.876
519.74658	629.837
519.76245	616.549
519.77826	599.7
519.79413	592.481
519.80994	583.288
519.82581	581.013
519.84161	570.592
519.85748	579.004
519.87329	586.738
519.88916	582.21
519.90497	585.554
519.92084	579.974
519.93665	582.468
519.95251	575.03
519.96832	574.086
519.98419	584.622
520	590.888
