Date and Time:                Fri Apr 13 12:59:06.838 2018
Software Version:             4.30.30034.0
Temperature (C):              -30
Model:                        DH334T-18U-03
Data Type:                    Counts
Acquisition Mode:             Accumulate
Trigger Mode:                 Internal
Exposure Time (secs):         2
Accumulate Cycle Time (secs): 2
Frequency (Hz):               0.5
Number of Accumulations:      10
Readout Mode:                 Full Vertical Binning
Horizontal binning:           1
Extended Dynamic Range:       off
Horizontally flipped:         true
Vertical Shift Speed (usecs): 6.5
Pixel Readout Rate (MHz):     0.05
Clock Amplitude:              Normal
Serial Number:                5999
Pre-Amplifier Gain:           1.000000
Intelligate:                  off
Insertion delay:              normal
Gain level:                   500
Integrate on chip:            off
PIV Mode:                     off
Gate Mode:                    Fire only
Gate Width (nsecs):           0
Gate Delay (nsecs):           0
Spurious Noise Filter Mode:   No Filter
Photon counted:               false
Data Averaging Filter Mode:   No Filter
SR750:
Serial Number:                SR-1311
Wavelength (nm):              474.998
Grating Groove Density (l/mm):1199.66
Grating Blaze:                500
Output Flipper Port:          Direct
Accessory Output Port 1:      Off
Accessory Output Port 2:      Off
Accessory Output Port 3:      Off
Accessory Input Port:         On



460	8428
460.00394	8433.78
460.0079	8439.6
460.01187	8445.42
460.01584	8431.98
460.01978	8388.06
460.02374	8343.81
460.02771	8299.94
460.03168	8287.52
460.03561	8285.6
460.03958	8283.66
460.04355	8287.33
460.04752	8314.09
460.05145	8341.87
460.05542	8369.61
460.05939	8376.67
460.06335	8364.75
460.06729	8352.93
460.07126	8336.05
460.07523	8289.36
460.07919	8234.04
460.08313	8179.15
460.0871	8151.13
460.09106	8174.03
460.09503	8200.36
460.09897	8225.79
460.10294	8235
460.1069	8235
460.11084	8235
460.11481	8239.23
460.11877	8260.01
460.12274	8283.57
460.12668	8306.95
460.13065	8315.48
460.13461	8305.6
460.13858	8295.64
460.14252	8285.76
460.14648	8298.6
460.15045	8316.34
460.15442	8334.08
460.15836	8343.8
460.16232	8323.56
460.16629	8303.33
460.17026	8283.09
460.17419	8292.57
460.17816	8322.23
460.18213	8351.88
460.1861	8380.03
460.19003	8369.03
460.194	8355.75
460.19797	8342.48
460.2019	8335.77
460.20587	8340.75
460.20984	8345.74
460.21381	8350.85
460.21774	8358.75
460.22171	8367.9
460.22568	8377.05
460.22964	8384.3
460.23358	8384.69
460.23755	8384.41
460.24152	8384.54
460.24548	8406.38
460.24942	8449.47
460.25339	8492.9
460.25735	8528.84
460.26132	8519.23
460.26526	8495.03
460.26923	8470.64
460.27319	8461.16
460.27716	8479.9
460.2811	8500.8
460.28506	8521.76
460.28903	8522.03
460.293	8511.5
460.29694	8501.05
460.3009	8497.92
460.30487	8531.22
460.30881	8569.37
460.31277	8607.82
460.31674	8625.54
460.32071	8615.01
460.32465	8604.56
460.32861	8594.03
460.33258	8572.97
460.33655	8549.41
460.34048	8526.03
460.34445	8515.26
460.34842	8558.23
460.35239	8601.19
460.35632	8643.82
460.36029	8657.69
460.36426	8650.22
460.36823	8642.76
460.37216	8635.63
460.37613	8632.62
460.3801	8630.13
460.38406	8627.63
460.388	8622.53
460.39197	8612.27
460.39594	8602.02
460.39987	8591.54
460.40384	8575.97
460.40781	8557.96
460.41177	8539.94
460.41571	8526.83
460.41968	8529.83
460.42365	8535.1
460.42761	8540.48
460.43155	8564.92
460.43552	8609.46
460.43948	8653.99
460.44345	8693.88
460.44739	8701.35
460.45135	8698.3
460.45532	8695.25
460.45929	8686.43
460.46323	8665.89
460.46719	8644.27
460.47116	8622.65
460.47513	8651.18
460.47906	8706.74
460.48303	8762.73
460.487	8817.42
460.49097	8863.47
460.4949	8908.21
460.49887	8953.3
460.50284	8983.28
460.50677	8991.25
460.51074	8999.29
460.51471	9007.33
460.51868	9007.24
460.52261	9005.04
460.52658	9002.83
460.53055	9007.67
460.53452	9045.37
460.53845	9082.77
460.54242	9120.47
460.54639	9135.6
460.55035	9133.1
460.55429	9130.63
460.55826	9121.32
460.56223	9049.23
460.56619	8965.97
460.57013	8883.36
460.5741	8816.43
460.57806	8783.73
460.58203	8751.02
460.58597	8720.04
460.58994	8710.18
460.5939	8711.84
460.59784	8713.49
460.60181	8713.05
460.60577	8705.61
460.60974	8697.02
460.61368	8688.49
460.61765	8718.33
460.62161	8788.58
460.62558	8859.39
460.62952	8924.59
460.63348	8945.92
460.63745	8952.85
460.64142	8959.78
460.64536	8962.3
460.64932	8954.7
460.65329	8946.39
460.65726	8938.07
460.66119	8942.6
460.66516	8954.79
460.66913	8966.99
460.6731	8977.43
460.67703	8967.83
460.681	8956.74
460.68497	8945.65
460.68893	8929.71
460.69287	8906.65
460.69684	8883.42
460.70081	8860.18
460.70474	8831.97
460.70871	8802.04
460.71268	8772.1
460.71664	8747.36
460.72058	8749.56
460.72455	8751.78
460.72852	8753.99
460.73248	8758.48
460.73642	8764.81
460.74039	8771.18
460.74435	8778.77
460.74832	8795.29
460.75226	8813.71
460.75623	8832.29
460.76019	8853.03
460.76416	8878.11
460.7681	8903.08
460.77206	8927.02
460.77603	8933.31
460.78	8929.43
460.78394	8925.58
460.7879	8918.15
460.79187	8898.72
460.79581	8877.26
460.79977	8855.64
460.80374	8848.72
460.80771	8857.77
460.81165	8867.13
460.81561	8875.38
460.81958	8868.38
460.82355	8857.02
460.82748	8845.74
460.83145	8836.47
460.83542	8832.92
460.83939	8829.6
460.84332	8826.3
460.84729	8789.96
460.85126	8732.31
460.85522	8674.66
460.85916	8619.53
460.86313	8631.58
460.8671	8646.27
460.87106	8660.96
460.875	8665.72
460.87897	8654.35
460.88293	8642.99
460.8869	8631.62
460.89084	8610.21
460.89481	8585.54
460.89877	8560.88
460.90271	8535.59
460.90668	8506.08
460.91064	8476.48
460.91461	8446.96
460.91855	8437.06
460.92252	8444.82
460.92648	8452.58
460.93045	8459.05
460.93439	8457.48
460.93835	8453.6
460.94232	8449.72
460.94629	8440.91
460.95023	8423
460.95419	8404.43
460.95816	8387.41
460.96213	8398.41
460.96606	8425.09
460.97003	8451.97
460.974	8474.1
460.97797	8478.78
460.9819	8480.43
460.98587	8482.09
460.98984	8481.46
460.99377	8478.2
460.99774	8474.88
461.00171	8471.93
461.00568	8480.21
461.00961	8491.21
461.01358	8502.3
461.01755	8508.15
461.02151	8496.18
461.02545	8484.07
461.02942	8471.88
461.03339	8465.34
461.03735	8462.57
461.04129	8459.81
461.04526	8457.04
461.04922	8459.46
461.05319	8461.95
461.05713	8464.43
461.0611	8471.62
461.06506	8486.83
461.06903	8502.04
461.07297	8516.2
461.07693	8479.01
461.0809	8422.75
461.08487	8366.48
461.08881	8321.31
461.09277	8318.94
461.09674	8319.77
461.10068	8320.58
461.10464	8320
461.10861	8318.06
461.11258	8316.12
461.11652	8317.15
461.12048	8336.45
461.12445	8361.4
461.12842	8386.35
461.13235	8415.13
461.13632	8451.71
461.14029	8488.86
461.14426	8525.85
461.14819	8558.18
461.15216	8588.33
461.15613	8618.47
461.1601	8646.67
461.16403	8666.43
461.168	8685
461.17197	8703.57
461.17593	8704.28
461.17987	8682.27
461.18384	8660.1
461.18781	8637.92
461.19174	8634.9
461.19571	8636.01
461.19968	8637.12
461.20364	8635.41
461.20758	8623.03
461.21155	8610.56
461.21552	8598.09
461.21948	8593.33
461.22342	8593.88
461.22739	8594.43
461.23135	8595.28
461.23532	8602.58
461.23926	8610.28
461.24323	8618.04
461.24719	8612.6
461.25116	8583.83
461.2551	8555.29
461.25906	8527
461.26303	8509.58
461.267	8496.83
461.27094	8484.18
461.2749	8473.55
461.27887	8470.51
461.28284	8468.29
461.28677	8466.06
461.29074	8461.9
461.29471	8455.81
461.29865	8449.75
461.30261	8443.9
461.30658	8439.54
461.31055	8435.66
461.31448	8431.81
461.31845	8455.01
461.32242	8529.52
461.32639	8608.24
461.33032	8686.36
461.33429	8712.27
461.33826	8711.16
461.34222	8710.05
461.34616	8698.46
461.35013	8630.99
461.3541	8555.88
461.35806	8480.76
461.362	8451.6
461.36597	8483.76
461.36993	8515.91
461.3739	8548.06
461.37784	8605.94
461.38181	8670.25
461.38577	8734.55
461.38971	8777.42
461.39368	8732.79
461.39764	8688.16
461.40161	8643.54
461.40555	8651.23
461.40952	8696.68
461.41348	8742.14
461.41745	8784.44
461.42139	8788.73
461.42535	8788.46
461.42932	8788.18
461.43329	8778.31
461.43723	8751.14
461.44119	8723.76
461.44516	8697.03
461.44913	8679.88
461.45306	8667.51
461.45703	8655.03
461.461	8645.58
461.46497	8645.85
461.4689	8647.51
461.47287	8649.08
461.47684	8622.14
461.4808	8566.43
461.48474	8511.14
461.48871	8461.33
461.49268	8451.94
461.49661	8455.24
461.50058	8458.57
461.50455	8454.02
461.50851	8433.56
461.51245	8412.1
461.51642	8390.48
461.52039	8400.94
461.52435	8428.38
461.52829	8455.61
461.53226	8482.89
461.53622	8509.06
461.54019	8535.11
461.54413	8560.97
461.5481	8570.15
461.55206	8556.32
461.55603	8542.49
461.55997	8528.77
461.56393	8551.72
461.5679	8583.88
461.57187	8616.03
461.57581	8648.81
461.57977	8685.67
461.58374	8722.54
461.58768	8759.12
461.59164	8761.27
461.59561	8737.16
461.59958	8713.04
461.60352	8692.67
461.60748	8702.54
461.61145	8717.79
461.61542	8733.03
461.61935	8740.84
461.62332	8734.47
461.62729	8728.09
461.63126	8721.43
461.63519	8711.18
461.63916	8698.99
461.64313	8686.79
461.64709	8672.71
461.65103	8652.97
461.655	8632.18
461.65897	8611.39
461.66293	8603.48
461.66687	8608.02
461.67084	8612.72
461.6748	8617.42
461.67877	8622.13
461.68271	8626.81
461.68668	8631.52
461.69064	8648.03
461.69458	8690.26
461.69855	8734.33
461.70251	8778.41
461.70648	8832.87
461.71042	8892.55
461.71439	8952.7
461.71835	9006.18
461.72232	8995.86
461.72626	8981.28
461.73022	8966.59
461.73419	8973.31
461.73816	9010.18
461.7421	9046.76
461.74606	9083.63
461.75003	9074.37
461.754	9053.58
461.75793	9032.95
461.7619	9014.67
461.76587	9007.46
461.76984	9000.26
461.77377	8993.1
461.77774	8943.77
461.78171	8862.55
461.78564	8781.96
461.78961	8705.86
461.79358	8664.55
461.79755	8630.53
461.80148	8596.77
461.80545	8566.41
461.80942	8543.02
461.81339	8519.73
461.81732	8497.51
461.82129	8486.63
461.82526	8481.92
461.82922	8477.21
461.83316	8471.53
461.83713	8462.63
461.84109	8453.21
461.84506	8443.78
461.849	8428.97
461.85297	8408.55
461.85693	8388.04
461.8609	8368.85
461.86484	8363.07
461.8688	8360.86
461.87277	8358.64
461.87674	8364.96
461.88068	8391.75
461.88464	8419.47
461.88861	8447.19
461.89255	8438.42
461.89651	8409.31
461.90048	8380.21
461.90445	8354.44
461.90839	8388.02
461.91235	8423.22
461.91632	8458.42
461.92029	8504.33
461.92422	8564.84
461.92819	8625.82
461.93216	8686.8
461.93613	8727.77
461.94006	8763.45
461.94403	8799.4
461.948	8839.67
461.95197	8899.14
461.9559	8958.27
461.95987	9017.7
461.96384	9034.82
461.9678	9018.46
461.97174	9002.23
461.97571	8990.68
461.97968	9007.55
461.98361	9031.21
461.98758	9055.05
461.99155	9057.3
461.99551	9021.57
461.99945	8984.71
462.00342	8947.61
462.00739	8911.02
462.01135	8874.71
462.01529	8838.68
462.01926	8806.62
462.02322	8788.32
462.02719	8772.24
462.03113	8756.29
462.0351	8737.35
462.03906	8715.49
462.04303	8693.59
462.04697	8671.94
462.05093	8651.41
462.0549	8631.18
462.05887	8610.94
462.06281	8601.39
462.06677	8621.72
462.07074	8642.23
462.07471	8662.74
462.07864	8690
462.08261	8721.32
462.08658	8752.64
462.09052	8783.25
462.09448	8794.06
462.09845	8804.87
462.10242	8815.68
462.10635	8858.2
462.11032	8946.99
462.11429	9035.77
462.11826	9122.41
462.12219	9141.26
462.12616	9139.04
462.13013	9136.83
462.13409	9133.32
462.13803	9125.28
462.142	9116.96
462.14597	9108
462.14993	9069.67
462.15387	9007.23
462.15784	8944.31
462.1618	8890.55
462.16577	8885.61
462.16971	8893.58
462.17368	8901.62
462.17764	8894.84
462.18158	8863.72
462.18555	8831.02
462.18951	8798.84
462.19348	8776.51
462.19742	8759.18
462.20139	8741.72
462.20535	8718.73
462.20932	8676.3
462.21326	8631.47
462.21722	8586.29
462.22119	8542.18
462.22516	8499.22
462.2291	8456.58
462.23306	8413.79
462.23703	8377.16
462.241	8341.68
462.24493	8306.47
462.2489	8282.74
462.25287	8293.55
462.25684	8304.36
462.26077	8315.09
462.26474	8326.79
462.26871	8338.98
462.27267	8351.18
462.27661	8363.28
462.28058	8375.48
462.28455	8387.67
462.28848	8399.78
462.29245	8412.88
462.29642	8427.29
462.30038	8441.7
462.30432	8456.57
462.30829	8481.84
462.31226	8510.67
462.31622	8539.49
462.32016	8567.58
462.32413	8594.25
462.32809	8620.8
462.33206	8647.26
462.336	8670.05
462.33997	8690.01
462.34393	8709.97
462.3479	8729.05
462.35184	8743.49
462.3558	8756.79
462.35977	8770.1
462.36374	8779.44
462.36768	8782.3
462.37164	8784.8
462.37561	8785.73
462.37955	8740.14
462.38351	8672.5
462.38748	8604.87
462.39145	8557.27
462.39539	8587.3
462.39935	8626.93
462.40332	8666.57
462.40729	8686.6
462.41122	8685.77
462.41519	8684.94
462.41916	8684.11
462.42313	8708.58
462.42706	8736.63
462.43103	8764.9
462.435	8784.59
462.43896	8779.05
462.4429	8773.55
462.44687	8768
462.45084	8756.44
462.4548	8741.48
462.45874	8726.62
462.46271	8711.13
462.46667	8690.16
462.47064	8668.82
462.47458	8647.64
462.47855	8602.79
462.48251	8523.79
462.48645	8445.41
462.49042	8369.84
462.49438	8337.92
462.49835	8322.68
462.50229	8307.55
462.50626	8289.69
462.51022	8264.33
462.51419	8238.28
462.51813	8212.67
462.52209	8196.02
462.52606	8187.15
462.53003	8178.28
462.53397	8174.21
462.53793	8194.44
462.5419	8221.33
462.54587	8248.21
462.5498	8257.02
462.55377	8236.86
462.55774	8214.96
462.56171	8193.27
462.56564	8206.63
462.56961	8234.07
462.57358	8261.51
462.57751	8283.19
462.58148	8279.9
462.58545	8274.36
462.58942	8268.81
462.59335	8273.79
462.59732	8289.87
462.60129	8305.94
462.60526	8322.02
462.60919	8326.41
462.61316	8329.18
462.61713	8331.95
462.62109	8337.92
462.62503	8352.77
462.629	8367.74
462.63297	8382.7
462.63693	8430.81
462.64087	8496.54
462.64484	8562.79
462.6488	8621.72
462.65277	8626.71
462.65671	8626.44
462.66068	8626.16
462.66464	8656.74
462.66861	8730.75
462.67255	8804.19
462.67651	8876.01
462.68048	8926.71
462.68442	8968.51
462.68839	9010.65
462.69235	9056.69
462.69632	9112.83
462.70026	9169.64
462.70422	9226.35
462.70819	9234.72
462.71216	9203.96
462.71609	9173.42
462.72006	9140.54
462.72403	9095.63
462.728	9047.68
462.73193	9000.09
462.7359	8958.49
462.73987	8927.79
462.74384	8897.58
462.74777	8867.6
462.75174	8805.66
462.75571	8731.1
462.75967	8656.53
462.76361	8592.81
462.76758	8585.43
462.77155	8581.27
462.77548	8577.14
462.77945	8577.15
462.78342	8581.58
462.78738	8586.02
462.79132	8590.42
462.79529	8557.75
462.79926	8519.5
462.80322	8481.25
462.80716	8446.1
462.81113	8418.94
462.81509	8391.78
462.81906	8364.61
462.823	8345.44
462.82697	8330.48
462.83093	8315.51
462.8349	8305.46
462.83884	8322.55
462.8428	8343.62
462.84677	8364.68
462.85074	8392.08
462.85468	8428.12
462.85864	8464.43
462.86261	8498.56
462.86658	8513.1
462.87051	8519.43
462.87448	8525.8
462.87845	8534.87
462.88239	8550.57
462.88635	8567.21
462.89032	8583.84
462.89429	8612.16
462.89822	8649
462.90219	8686.14
462.90616	8726.91
462.91013	8789.78
462.91406	8857.16
462.91803	8925.08
462.922	8976.29
462.92596	8997.83
462.9299	9018.45
462.93387	9039.24
462.93784	9069.45
462.9418	9103.27
462.94574	9136.83
462.94971	9165.65
462.95367	9158.4
462.95764	9150.64
462.96158	9142.94
462.96555	9126.45
462.96951	9100.94
462.97345	9075.64
462.97742	9050.14
462.98138	9049.67
462.98535	9052.72
462.98929	9055.75
462.99326	9055.03
462.99722	9043.66
463.00119	9032.3
463.00513	9021.56
463.00909	9064.1
463.01306	9137
463.01703	9209.9
463.02097	9275.82
463.02493	9310.86
463.0289	9340.79
463.03287	9370.79
463.0368	9424.04
463.04077	9510.8
463.04474	9597.56
463.04871	9683.28
463.05264	9759.76
463.05661	9833.22
463.06058	9906.67
463.06454	9970.48
463.06848	10010.7
463.07245	10048.4
463.07642	10086.1
463.08035	10098.1
463.08432	10091.6
463.08829	10084.9
463.09225	10080.1
463.09619	10089.1
463.10016	10100.7
463.10413	10112.4
463.10809	10077.4
463.11203	9955.28
463.116	9832.21
463.11996	9709.13
463.12393	9587.48
463.12787	9467.28
463.13184	9346.15
463.1358	9233.46
463.13977	9185.4
463.14371	9137.71
463.14767	9089.66
463.15164	9029.97
463.15561	8959.02
463.15955	8888.6
463.16351	8818.72
463.16748	8779.33
463.17142	8745.22
463.17538	8710.85
463.17935	8672.49
463.18332	8623.71
463.18726	8575.3
463.19122	8526.77
463.19519	8485.25
463.19916	8447.83
463.20309	8410.69
463.20706	8379.97
463.21103	8376.74
463.215	8378.4
463.21893	8380.05
463.2229	8387.15
463.22687	8401.23
463.23083	8415.36
463.23477	8429.26
463.23874	8442.17
463.24271	8454.64
463.24667	8467.12
463.25061	8491.7
463.25458	8546.19
463.25854	8603.84
463.26251	8661.5
463.26645	8717.57
463.27042	8773.29
463.27438	8829
463.27832	8886.68
463.28229	8964.99
463.28625	9046.48
463.29022	9127.97
463.29416	9194.22
463.29813	9234.41
463.30209	9274.61
463.30606	9314.8
463.31	9372.9
463.31396	9437.76
463.31793	9502.62
463.3219	9558.71
463.32584	9556.51
463.3298	9554.29
463.33377	9552.07
463.33774	9532
463.34167	9495.42
463.34564	9458.55
463.34961	9424.1
463.35358	9420.99
463.35751	9424.29
463.36148	9427.62
463.36545	9421.16
463.36938	9390.36
463.37335	9359.31
463.37732	9327.56
463.38129	9282.2
463.38522	9229.11
463.38919	9175.62
463.39316	9117.03
463.39713	9039.12
463.40106	8958.25
463.40503	8876.76
463.409	8823.9
463.41296	8805.48
463.4169	8787.88
463.42087	8768.38
463.42484	8732.09
463.4288	8689.68
463.43274	8647.6
463.43671	8606.75
463.44067	8569.81
463.44464	8533.22
463.44858	8496.92
463.45255	8453.76
463.45651	8406.09
463.46048	8358.41
463.46442	8315.71
463.46838	8323
463.47235	8336.3
463.47629	8349.5
463.48026	8344.37
463.48422	8306.67
463.48819	8268.98
463.49213	8231.57
463.49609	8212.9
463.50006	8200.7
463.50403	8188.51
463.50797	8179.27
463.51193	8188.99
463.5159	8198.72
463.51987	8208.44
463.5238	8209.08
463.52777	8201.6
463.53174	8194.12
463.53571	8188.49
463.53964	8199.59
463.54361	8214.55
463.54758	8229.52
463.55154	8245.17
463.55548	8262.21
463.55945	8279.39
463.56342	8295.36
463.56735	8292.43
463.57132	8278.29
463.57529	8264.16
463.57925	8257.32
463.58319	8276.01
463.58716	8299.57
463.59113	8323.13
463.59509	8343.21
463.59903	8359.25
463.603	8375.33
463.60696	8391.33
463.61093	8406.55
463.61487	8421.4
463.61884	8436.37
463.6228	8460.16
463.62677	8506.31
463.63071	8553.62
463.63467	8601.3
463.63864	8666.66
463.64261	8743.44
463.64655	8819.63
463.65051	8893.21
463.65448	8915.15
463.65845	8933.45
463.66238	8951.6
463.66635	8959.66
463.67032	8950.79
463.67426	8941.99
463.67822	8933.12
463.68219	8998.13
463.68616	9086.27
463.69009	9173.74
463.69406	9250.54
463.69803	9261.07
463.702	9271.61
463.70593	9282.06
463.7099	9289.21
463.71387	9293.36
463.71783	9297.52
463.72177	9301.21
463.72574	9301.75
463.72971	9301.47
463.73367	9301.19
463.73761	9289.45
463.74158	9254.97
463.74554	9219.76
463.74951	9181.44
463.75345	9099.16
463.75742	8991.06
463.76138	8882.96
463.76532	8786.23
463.76929	8724.9
463.77325	8670.01
463.77722	8615.13
463.78116	8576.13
463.78513	8553.59
463.78909	8531.42
463.79306	8508.53
463.797	8476.68
463.80096	8442.03
463.80493	8407.39
463.8089	8366.23
463.81284	8307.99
463.8168	8248.68
463.82077	8189.36
463.82474	8166.31
463.82867	8165.21
463.83264	8164.1
463.83661	8163.37
463.84058	8172.22
463.84451	8181.29
463.84848	8190.44
463.85245	8202.74
463.85641	8219.93
463.86035	8236.98
463.86432	8254.17
463.86829	8268.34
463.87222	8281.54
463.87619	8294.84
463.88016	8306.03
463.88412	8307.61
463.88806	8308.99
463.89203	8310.37
463.896	8309
463.89996	8305.4
463.9039	8301.83
463.90787	8307.73
463.91183	8370.84
463.9158	8448.45
463.91974	8525.46
463.92371	8608.88
463.92767	8702.69
463.93164	8796.93
463.93558	8886.36
463.93954	8915.84
463.94351	8912.79
463.94748	8909.74
463.95142	8913.78
463.95538	8941.52
463.95935	8973.12
463.96329	9004.47
463.96725	9013.18
463.97122	8997.67
463.97519	8981.87
463.97913	8966.49
463.98309	8955.88
463.98706	8946.46
463.99103	8937.03
463.99496	8920.32
463.99893	8882.33
464.0029	8844.08
464.00687	8805.83
464.0108	8782.56
464.01477	8767.59
464.01874	8752.62
464.02271	8737.64
464.02664	8722.21
464.03061	8706.65
464.03458	8691.09
464.03854	8679.93
464.04248	8674.98
464.04645	8669.99
464.05042	8664.48
464.05438	8638.72
464.05832	8607.37
464.06229	8575.77
464.06625	8552.3
464.07019	8558.48
464.07416	8565.69
464.07813	8572.76
464.08209	8573.48
464.08603	8569.07
464.09	8564.64
464.09396	8559.73
464.09793	8552.33
464.10187	8544.36
464.10583	8536.32
464.1098	8523.9
464.11377	8504.29
464.11771	8484.48
464.12167	8464.49
464.12564	8443.97
464.12961	8423.18
464.13354	8402.55
464.13751	8391.73
464.14148	8414.09
464.14545	8441.25
464.14938	8468.21
464.15335	8473.93
464.15732	8457.54
464.16125	8441.28
464.16522	8427.03
464.16919	8463.7
464.17316	8509.72
464.17709	8555.38
464.18106	8595.87
464.18503	8621.37
464.189	8646.87
464.19293	8672.17
464.1969	8693.69
464.20087	8713.09
464.20483	8732.49
464.20877	8750.86
464.21274	8751
464.21671	8751
464.22067	8751
464.22461	8741.74
464.22858	8719.84
464.23254	8697.94
464.23651	8677.26
464.24045	8678.04
464.24442	8685.53
464.24838	8693.01
464.25235	8688.46
464.25629	8647.11
464.26025	8603.59
464.26422	8559.44
464.26816	8497.61
464.27213	8420.67
464.27609	8343.72
464.28006	8278.61
464.284	8268.22
464.28796	8271.55
464.29193	8274.88
464.2959	8266.07
464.29984	8239.47
464.3038	8211.75
464.30777	8185.55
464.31174	8187.13
464.31567	8200.61
464.31964	8214.19
464.32361	8217.99
464.32758	8188.7
464.33151	8155.97
464.33548	8122.99
464.33945	8102.71
464.34341	8094.4
464.34735	8086.15
464.35132	8078.92
464.35529	8122.4
464.35922	8172.46
464.36319	8222.91
464.36716	8259.95
464.37112	8263.27
464.37506	8266.57
464.37903	8269.9
464.383	8324.17
464.38696	8403.61
464.3909	8482.44
464.39487	8559.62
464.39883	8611.73
464.4028	8663.29
464.40674	8714.56
464.41071	8784.74
464.41467	8877.62
464.41864	8970.09
464.42258	9058.58
464.42654	9111.13
464.43051	9151.72
464.43448	9192.1
464.43842	9244.59
464.44238	9332.59
464.44635	9422.39
464.45032	9510.7
464.45425	9565.77
464.45822	9596.65
464.46219	9627.32
464.46613	9652.66
464.47009	9653.87
464.47406	9649.14
464.47803	9644.63
464.48196	9604.33
464.48593	9512.21
464.4899	9418.07
464.49387	9324.14
464.4978	9235.3
464.50177	9147.69
464.50574	9060.41
464.5097	8980.67
464.51364	8924.6
464.51761	8870.21
464.52158	8815.57
464.52554	8759.36
464.52948	8702.88
464.53345	8646.28
464.53741	8591.69
464.54138	8536.27
464.54532	8481.4
464.54929	8426.37
464.55325	8380.72
464.55719	8356.43
464.56116	8332.17
464.56512	8308.51
464.56909	8305.7
464.57303	8312.03
464.577	8318.88
464.58096	8326.88
464.58493	8328.85
464.58887	8330.82
464.59283	8332.87
464.5968	8337.1
464.60077	8344.19
464.60471	8351.5
464.60867	8358.94
464.61264	8379.96
464.61661	8405.67
464.62054	8430.81
464.62451	8448.95
464.62848	8460.09
464.63245	8470.71
464.63638	8479.2
464.64035	8489.72
464.64432	8503.28
464.64828	8516.64
464.65222	8528.55
464.65619	8545.73
464.66016	8563.89
464.66409	8582.05
464.66806	8595.89
464.67203	8601.68
464.67599	8606.98
464.67993	8613.92
464.6839	8629.65
464.68787	8647.7
464.69183	8665.35
464.69577	8675.02
464.69974	8660.55
464.7037	8644.72
464.70767	8630.4
464.71161	8637.25
464.71558	8658.89
464.71954	8680.12
464.72351	8698.25
464.72745	8694.25
464.73141	8688.88
464.73538	8683.71
464.73935	8681.78
464.74329	8684.44
464.74725	8686.97
464.75122	8692.96
464.75516	8697.17
464.75912	8699.53
464.76309	8702.16
464.76706	8713.04
464.771	8753.8
464.77496	8796.53
464.77893	8839
464.7829	8869.79
464.78683	8889.05
464.7908	8908.49
464.79477	8929.14
464.79874	8963.16
464.80267	9001.28
464.80664	9039.59
464.81061	9060.17
464.81458	9046.05
464.81851	9029.5
464.82248	9013.14
464.82645	8973.56
464.83041	8918.86
464.83435	8864.64
464.83832	8807.29
464.84229	8766.16
464.84625	8728.5
464.85019	8692.9
464.85416	8656.75
464.85812	8612.45
464.86206	8568.56
464.86603	8525.93
464.87	8539.37
464.87396	8567.68
464.8779	8594.64
464.88187	8609.04
464.88583	8595.76
464.8898	8581.95
464.89374	8571.84
464.89771	8580.51
464.90167	8599.11
464.90564	8617.61
464.90958	8633.82
464.91354	8628.24
464.91751	8622.06
464.92148	8617
464.92542	8607.89
464.92938	8585.45
464.93335	8563.23
464.93732	8540.63
464.94125	8539.2
464.94522	8546.08
464.94919	8552.99
464.95313	8556.21
464.95709	8551.65
464.96106	8546.62
464.96503	8540.87
464.96896	8533.52
464.97293	8526.69
464.9769	8519.91
464.98087	8513.4
464.9848	8508.33
464.98877	8503.68
464.99274	8498.26
464.9967	8483.55
465.00064	8477.7
465.00461	8472.23
465.00858	8470.17
465.01254	8459.75
465.01648	8441.66
465.02045	8423.12
465.02441	8404.44
465.02838	8402.79
465.03232	8404.01
465.03629	8405.42
465.04025	8401.86
465.04422	8390.78
465.04816	8379.99
465.05212	8381.28
465.05609	8417.96
465.06003	8459.68
465.064	8500.76
465.06796	8534.42
465.07193	8559.4
465.07587	8584.17
465.07983	8605.36
465.0838	8600.69
465.08777	8582.96
465.09171	8565.31
465.09567	8546.99
465.09964	8543.49
465.10361	8540.61
465.10754	8539.34
465.11151	8544.22
465.11548	8548.88
465.11945	8553.54
465.12338	8554.46
465.12735	8534.37
465.13132	8507.83
465.13528	8481.31
465.13922	8473.78
465.14319	8497.26
465.14716	8523
465.15109	8544.66
465.15506	8551.23
465.15903	8554.92
465.16299	8558.48
465.16693	8570.07
465.1709	8598.66
465.17487	8631.05
465.17883	8663.02
465.18277	8700.02
465.18674	8750.92
465.1907	8802.49
465.19467	8856.41
465.19861	8897.01
465.20258	8929.15
465.20654	8961.54
465.21051	8999.77
465.21445	9047.1
465.21841	9095.82
465.22238	9142
465.22635	9179.06
465.23029	9213.11
465.23425	9247.35
465.23822	9285.6
465.24219	9272.4
465.24612	9250.67
465.25009	9226.69
465.25406	9188.99
465.258	9146.03
465.26196	9102.76
465.26593	9063.1
465.2699	9027.48
465.27383	8991.21
465.2778	8954.79
465.28177	8922
465.28574	8909.91
465.28967	8899.02
465.29364	8888.33
465.29761	8879.69
465.30157	8872.47
465.30551	8865.39
465.30948	8864.93
465.31345	8864.66
465.31741	8861.55
465.32135	8858.71
465.32532	8845.66
465.32928	8825.93
465.33325	8806.02
465.33719	8786.22
465.34116	8767.24
465.34512	8749.96
465.34906	8732.98
465.35303	8742.77
465.35699	8794.46
465.36096	8853.92
465.3649	8909.6
465.36887	8926.64
465.37283	8922.28
465.3768	8917.05
465.38074	8909.81
465.3847	8891.39
465.38867	8869.85
465.39264	8848.35
465.39658	8828.97
465.40054	8820.11
465.40451	8812.4
465.40848	8805.47
465.41241	8826.43
465.41638	8873.31
465.42035	8920.08
465.42432	8958.73
465.42825	8929.29
465.43222	8892.75
465.43619	8854.63
465.44016	8807.66
465.44409	8766.01
465.44806	8723.89
465.45203	8680.69
465.45596	8645.94
465.45993	8615.76
465.4639	8585.34
465.46786	8565.46
465.4718	8577.15
465.47577	8590.55
465.47974	8604.21
465.4837	8601.24
465.48764	8572.43
465.49161	8543.33
465.49557	8518.85
465.49954	8492.71
465.50348	8463.71
465.50745	8434.57
465.51141	8410.76
465.51538	8403.68
465.51932	8398
465.52328	8391.51
465.52725	8384.36
465.53122	8379.14
465.53516	8373.88
465.53912	8371.2
465.54309	8369.41
465.54703	8367.32
465.55099	8364.66
465.55496	8367.05
465.55893	8380.61
465.56287	8394.41
465.56683	8416.71
465.5708	8452.05
465.57477	8486.84
465.5787	8520.32
465.58267	8536.5
465.58664	8527.88
465.59061	8518.04
465.59454	8511
465.59851	8508.23
465.60248	8503.38
465.60645	8498.64
465.61038	8485.88
465.61435	8496.1
465.61832	8508.65
465.62228	8521.99
465.62622	8540.51
465.63019	8551.02
465.63416	8561.53
465.63812	8565.34
465.64206	8540.11
465.64603	8508.71
465.64999	8477.25
465.65393	8458.73
465.6579	8447.25
465.66187	8435.85
465.66583	8424.63
465.66977	8422.25
465.67374	8427.06
465.6777	8431.88
465.68167	8438.37
465.68561	8442.42
465.68958	8444.64
465.69354	8446.9
465.69751	8443.06
465.70145	8439.35
465.70541	8435.79
465.70938	8430.44
465.71335	8418.18
465.71729	8406.23
465.72125	8394.26
465.72522	8393.02
465.72919	8406.95
465.73312	8422.41
465.73709	8439.29
465.74106	8461.88
465.745	8484.05
465.74896	8506.41
465.75293	8529.93
465.7569	8535.99
465.76083	8536.76
465.7648	8536.45
465.76877	8520.6
465.77274	8510.95
465.77667	8501.75
465.78064	8494.69
465.78461	8513.56
465.78857	8547.35
465.79251	8580.72
465.79648	8610.02
465.80045	8596.62
465.80441	8581.35
465.80835	8566.23
465.81232	8553.99
465.81628	8545.97
465.82025	8537.93
465.82419	8529.46
465.82816	8538.7
465.83212	8554.87
465.83609	8570.87
465.84003	8585.26
465.84399	8573.68
465.84796	8560.17
465.8519	8546.72
465.85587	8534.07
465.85983	8530.15
465.8638	8526.15
465.86774	8528.6
465.8717	8547.15
465.87567	8568.18
465.87964	8589.22
465.88358	8612.49
465.88754	8637.56
465.89151	8662.66
465.89548	8684.47
465.89941	8699.75
465.90338	8717.51
465.90735	8734.99
465.91132	8748.02
465.91525	8756.16
465.91922	8763.95
465.92319	8776.37
465.92715	8811.42
465.93109	8848.86
465.93506	8886.6
465.93903	8914.06
465.94296	8919.27
465.94693	8922.29
465.9509	8925.75
465.95486	8947.06
465.9588	8992.19
465.96277	9037.56
465.96674	9082.69
465.9707	9114.82
465.97464	9138.65
465.97861	9162.66
465.98257	9182.07
465.98654	9182.59
465.99048	9182.71
465.99445	9182.87
465.99841	9177.61
466.00238	9158.4
466.00632	9139.55
466.01028	9112.84
466.01425	9048.62
466.01822	8979.91
466.02216	8911.87
466.02612	8880.31
466.03009	8890.71
466.03406	8902.96
466.03799	8914.7
466.04196	8912.49
466.04593	8903.67
466.04987	8895.17
466.05383	8886.37
466.0578	8886.97
466.06177	8891.7
466.0657	8896.61
466.06967	8905.19
466.07364	8916.38
466.07761	8927.75
466.08154	8951.84
466.08551	9006.34
466.08948	9058.86
466.09344	9111.42
466.09738	9148.24
466.10135	9178.45
466.10532	9210.33
466.10928	9240.95
466.11322	9261.86
466.11719	9279.28
466.12115	9296.88
466.12512	9304.44
466.12906	9304.78
466.13303	9305.65
466.13699	9306.49
466.14093	9318.74
466.1449	9341.28
466.14886	9363.81
466.15283	9379.36
466.15677	9353.44
466.16074	9319.19
466.1647	9284.77
466.16867	9256.14
466.17261	9227.7
466.17657	9198.72
466.18054	9169.71
466.18451	9105.77
466.18845	9040.57
466.19241	8974.53
466.19638	8917.6
466.20035	8900.22
466.20428	8885.2
466.20825	8869.87
466.21222	8856.51
466.21619	8835.11
466.22012	8813.03
466.22409	8791.09
466.22806	8775.08
466.23203	8762.51
466.23596	8749.96
466.23993	8730.78
466.2439	8699.34
466.24783	8667.56
466.2518	8636.74
466.25577	8615.53
466.25974	8590.77
466.26367	8565.69
466.26764	8544.65
466.27161	8552.06
466.27557	8568.46
466.27951	8584.75
466.28348	8604.61
466.28745	8628.91
466.29141	8653.38
466.29535	8675.87
466.29932	8682.48
466.30328	8681.62
466.30725	8680.75
466.31119	8683.61
466.31516	8686.04
466.31912	8688.11
466.32309	8690.32
466.32703	8683.88
466.33099	8676.39
466.33496	8668.9
466.3389	8659.49
466.34286	8632.44
466.34683	8602.23
466.3508	8572.01
466.35474	8546.05
466.3587	8520.65
466.36267	8495.14
466.36664	8469.7
466.37057	8467.63
466.37454	8475.55
466.37851	8483.56
466.38248	8492.55
466.38641	8511.35
466.39038	8533.72
466.39435	8556.03
466.39832	8550.14
466.40225	8517.17
466.40622	8483.19
466.41019	8452.77
466.41415	8454.29
466.41809	8465.75
466.42206	8477.22
466.42603	8490.25
466.42999	8502.96
466.43393	8514.34
466.4379	8523.99
466.44186	8515.08
466.4458	8499.63
466.44977	8484.06
466.45374	8468.94
466.4577	8446.81
466.46164	8421.74
466.46561	8396.46
466.46957	8385.83
466.47354	8390.25
466.47748	8394.95
466.48145	8398.44
466.48541	8397.18
466.48938	8397.49
466.49332	8397.69
466.49728	8397.67
466.50125	8400.45
466.50522	8403.33
466.50916	8406.04
466.51312	8395.62
466.51709	8366.63
466.52106	8337.71
466.52499	8309.88
466.52896	8299.48
466.53293	8292.7
466.53687	8285.95
466.54083	8285.4
466.5448	8293.85
466.54877	8302.35
466.5527	8310.82
466.55667	8328.22
466.56064	8353.14
466.56461	8377.96
466.56854	8405.37
466.57251	8442.25
466.57648	8476.89
466.58044	8511.63
466.58438	8528.01
466.58835	8527.16
466.59232	8526.06
466.59628	8520.9
466.60022	8491.73
466.60419	8457.42
466.60815	8423.06
466.61212	8407.89
466.61606	8427.02
466.62003	8447.3
466.62399	8467.26
466.62796	8485.69
466.6319	8505.63
466.63586	8525.81
466.63983	8536.46
466.64377	8515.72
466.64774	8489.27
466.6517	8462.71
466.65567	8458.72
466.65961	8485.34
466.66357	8512.74
466.66754	8539.85
466.67151	8564.48
466.67545	8587.79
466.67941	8611.1
466.68338	8634.84
466.68735	8649.17
466.69128	8663.14
466.69525	8677.2
466.69922	8678.29
466.70319	8670.97
466.70712	8663.66
466.71109	8656.9
466.71506	8670.06
466.71902	8684.51
466.72296	8698.8
466.72693	8711.25
466.7309	8713.04
466.73483	8714.66
466.7388	8716.2
466.74277	8679.66
466.74673	8628.71
466.75067	8578.37
466.75464	8536.63
466.75861	8535.38
466.76257	8538.14
466.76651	8540.89
466.77048	8536.87
466.77444	8524.02
466.77841	8511.09
466.78235	8501.24
466.78632	8513.61
466.79028	8534.83
466.79425	8556.04
466.79819	8580.34
466.80215	8608.13
466.80612	8635.66
466.81009	8664.18
466.81403	8706.71
466.81799	8757.59
466.82196	8808.64
466.82593	8858.16
466.82986	8903.11
466.83383	8947.98
466.8378	8992.97
466.84174	9050.7
466.8457	9122.3
466.84967	9194.15
466.85364	9264.63
466.85757	9299.67
466.86154	9328.82
466.86551	9357.96
466.86948	9359.3
466.87341	9275.21
466.87738	9190.2
466.88135	9104.9
466.88531	9072.52
466.88925	9071.9
466.89322	9071.15
466.89719	9068.65
466.90115	9013.59
466.90509	8957.61
466.90906	8900.97
466.91302	8844.17
466.91699	8784.51
466.92093	8725.13
466.9249	8666.75
466.92886	8645.78
466.9328	8639.25
466.93677	8632.55
466.94073	8625.82
466.9447	8618.73
466.94864	8611.27
466.95261	8603.66
466.95657	8593.12
466.96054	8579.03
466.96448	8564.96
466.96844	8554.73
466.97241	8566.39
466.97638	8584.44
466.98032	8602.4
466.98428	8616.38
466.98825	8625.44
466.99222	8634.4
466.99615	8643.21
467.00012	8651.3
467.00409	8657.99
467.00806	8664.65
467.01199	8676.42
467.01596	8703.79
467.01993	8733.22
467.0239	8762.91
467.02783	8778.32
467.0318	8779.44
467.03577	8780.63
467.0397	8781.88
467.04367	8773.51
467.04764	8763.78
467.05161	8754.06
467.05554	8750.23
467.05951	8765.69
467.06348	8781.21
467.06744	8796.77
467.07138	8794.54
467.07535	8780.76
467.07932	8767.08
467.08328	8756.63
467.08722	8785.99
467.09119	8818.52
467.09515	8851.19
467.09912	8871.61
467.10306	8873.8
467.10703	8876.04
467.11099	8879.48
467.11496	8899.86
467.1189	8926.48
467.12286	8953.42
467.12683	8972.02
467.13077	8965.06
467.13474	8955.72
467.1387	8946.97
467.14267	8960.14
467.14661	8992.37
467.15057	9024.98
467.15454	9051.91
467.15851	9049.16
467.16245	9038.19
467.16641	9027.03
467.17038	9012.52
467.17435	8992.19
467.17828	8971.54
467.18225	8950.7
467.18622	8940.41
467.19019	8934.48
467.19412	8928.66
467.19809	8923.75
467.20206	8923.94
467.20602	8924.66
467.20996	8925.35
467.21393	8920.89
467.2179	8910.54
467.22186	8900.14
467.2258	8889.78
467.22977	8862.33
467.23373	8831.91
467.23767	8801.59
467.24164	8773.84
467.24561	8755.44
467.24957	8736.92
467.25351	8718.44
467.25748	8693.53
467.26144	8664.76
467.26541	8635.85
467.26935	8606.93
467.27332	8576.5
467.27728	8545.85
467.28125	8515.22
467.28519	8487.99
467.28915	8465.53
467.29312	8443.01
467.29709	8422.24
467.30103	8421.34
467.30499	8429.12
467.30896	8436.92
467.31293	8444.13
467.31686	8449.54
467.32083	8454.68
467.3248	8460
467.32874	8491.84
467.3327	8547.29
467.33667	8602.72
467.34064	8650.04
467.34457	8649.72
467.34854	8636.41
467.35251	8623.11
467.35648	8605.08
467.36041	8578.84
467.36438	8551.95
467.36835	8525.07
467.37231	8509.82
467.37625	8499.64
467.38022	8489.39
467.38419	8482.4
467.38815	8493.83
467.39209	8506.48
467.39606	8519.23
467.40002	8519.5
467.40399	8505.64
467.40793	8491.88
467.4119	8478.03
467.41586	8492.33
467.41983	8511.46
467.42377	8530.43
467.42773	8542.96
467.4317	8534.38
467.43564	8525.87
467.43961	8517.3
467.44357	8522.19
467.44754	8535.49
467.45148	8548.69
467.45544	8563.94
467.45941	8591.94
467.46338	8621.87
467.46732	8651.58
467.47128	8680.34
467.47525	8707.23
467.47922	8734.12
467.48315	8761.1
467.48712	8791.52
467.49109	8823.4
467.49506	8855.27
467.49899	8893.36
467.50296	8949.48
467.50693	9007.97
467.51089	9066.46
467.51483	9152.65
467.5188	9263.15
467.52277	9373.75
467.5267	9478.77
467.53067	9552.9
467.53464	9618.87
467.5386	9684.84
467.54254	9750.76
467.54651	9818.08
467.55048	9885.44
467.55444	9952.79
467.55838	9968.2
467.56235	9961.27
467.56631	9954.34
467.57028	9941.61
467.57422	9886.51
467.57819	9829.41
467.58215	9772.31
467.58612	9721.49
467.59006	9678.13
467.59402	9634.43
467.59799	9590.72
467.60196	9473.06
467.6059	9342.96
467.60986	9211.85
467.61383	9106.2
467.6178	9085.41
467.62173	9064.78
467.6257	9044
467.62967	9008.71
467.63361	8964.7
467.63757	8920.35
467.64154	8883.48
467.64551	8887.64
467.64944	8899.19
467.65341	8910.83
467.65738	8926.53
467.66135	8948.7
467.66528	8970.71
467.66925	8989.71
467.67322	8976.46
467.67719	8948.47
467.68112	8920.69
467.68509	8891.81
467.68906	8860.54
467.69302	8828.94
467.69696	8797.58
467.70093	8757.13
467.7049	8709.23
467.70886	8661.27
467.7128	8619.33
467.71677	8622.54
467.72073	8636.12
467.72467	8649.6
467.72864	8665.3
467.7326	8685.46
467.73657	8705.7
467.74051	8725.77
467.74448	8732.77
467.74844	8733.88
467.75241	8734.99
467.75635	8732.74
467.76031	8690.33
467.76428	8647.92
467.76825	8605.51
467.77219	8587.48
467.77615	8597.18
467.78012	8606.88
467.78409	8617.17
467.78802	8655.68
467.79199	8700.21
467.79596	8744.75
467.79993	8790.58
467.80386	8840.36
467.80783	8890.53
467.8118	8939.96
467.81577	8954.88
467.8197	8946.63
467.82367	8938.32
467.82764	8937.38
467.83157	8971.81
467.83554	9013.94
467.83951	9056.07
467.84348	9092.37
467.84741	9119.78
467.85138	9147.23
467.85535	9173.24
467.85931	9184.2
467.86325	9188.32
467.86722	9192.48
467.87119	9187.15
467.87515	9155.06
467.87909	9119.86
467.88306	9084.38
467.88702	9069.19
467.89099	9071.41
467.89493	9073.61
467.8989	9071.99
467.90286	9025.59
467.90683	8970.99
467.91077	8916.8
467.91473	8877.63
467.9187	8873.2
467.92264	8868.8
467.92661	8864.37
467.93057	8847.26
467.93454	8824.54
467.93848	8801.98
467.94244	8781.6
467.94641	8789.36
467.95038	8797.12
467.95432	8804.82
467.95828	8815.91
467.96225	8830.88
467.96622	8845.84
467.97015	8858.89
467.97412	8838.14
467.97809	8808.76
467.98206	8779.38
467.98599	8749.41
467.98996	8716.74
467.99393	8684.04
467.99789	8651.72
468.00183	8629.45
468.0058	8613.93
468.00977	8598.4
468.01373	8586.93
468.01767	8592.98
468.02164	8602.96
468.0256	8612.94
468.02954	8614.19
468.03351	8603.26
468.03748	8591.9
468.04144	8580.73
468.04538	8572.03
468.04935	8564.27
468.05331	8556.51
468.05728	8549.14
468.06122	8542.98
468.06519	8536.89
468.06915	8530.81
468.07312	8537.4
468.07706	8554.73
468.08102	8572.19
468.08499	8590.5
468.08896	8625.29
468.0929	8662.14
468.09686	8699.29
468.10083	8723.29
468.1048	8717.75
468.10873	8712.25
468.1127	8706.71
468.11667	8678.71
468.12061	8641.03
468.12457	8603.05
468.12854	8569.76
468.13251	8587.4
468.13644	8605.28
468.14041	8623.3
468.14438	8638.76
468.14835	8651.23
468.15228	8663.61
468.15625	8676.78
468.16022	8698.41
468.16418	8722.52
468.16812	8746.45
468.17209	8774.73
468.17606	8814.13
468.18002	8854.04
468.18396	8894.95
468.18793	8967
468.19189	9061.24
468.19586	9155.48
468.1998	9246.68
468.20377	9328.55
468.20773	9408.1
468.2117	9487.66
468.21564	9568.75
468.2196	9653.44
468.22357	9738.26
468.22751	9822.68
468.23148	9912.15
468.23544	10003.3
468.23941	10094.5
468.24335	10163.3
468.24731	10162.4
468.25128	10154.9
468.25525	10147.4
468.25919	10138.8
468.26315	10129.1
468.26712	10119.4
468.27109	10108.9
468.27502	10049.4
468.27899	9984.8
468.28296	9920.21
468.28693	9845.93
468.29086	9751.31
468.29483	9655.96
468.2988	9560.61
468.30276	9476.51
468.3067	9397.84
468.31067	9318.57
468.31464	9241.89
468.31857	9184.81
468.32254	9127.98
468.32651	9071.16
468.33047	9020.97
468.33441	8978.61
468.33838	8935.93
468.34235	8895.83
468.34631	8879.66
468.35025	8871.14
468.35422	8862.54
468.35818	8855.28
468.36215	8851.19
468.36609	8847.34
468.37006	8843.06
468.37402	8829.74
468.37799	8810.06
468.38193	8790.53
468.38589	8779.29
468.38986	8803.68
468.39383	8836.11
468.39777	8868.29
468.40173	8880.96
468.4057	8866.77
468.40967	8851.53
468.4136	8837.14
468.41757	8846.57
468.42154	8864.03
468.42548	8881.36
468.42944	8893.47
468.43341	8886.02
468.43738	8877.43
468.44131	8868.9
468.44528	8864.55
468.44925	8863.71
468.45322	8862.88
468.45715	8862.06
468.46112	8853.23
468.46509	8843.8
468.46906	8834.38
468.47299	8828.79
468.47696	8831.28
468.48093	8833.78
468.48489	8836.27
468.48883	8865.72
468.4928	8906.74
468.49677	8947.76
468.50073	8980.1
468.50467	8963.96
468.50864	8944.55
468.5126	8925.15
468.51654	8905.5
468.52051	8885.27
468.52448	8865.04
468.52844	8846.5
468.53238	8840.58
468.53635	8838.92
468.54031	8837.25
468.54428	8842.4
468.54822	8862.09
468.55219	8883.16
468.55615	8902.41
468.56012	8866.72
468.56406	8795.48
468.56802	8723.69
468.57199	8657.28
468.57596	8614.72
468.5799	8577.32
468.58386	8539.62
468.58783	8513.61
468.5918	8503.81
468.59573	8494.45
468.5997	8485.08
468.60367	8483.22
468.60764	8483.49
468.61157	8483.77
468.61554	8489.53
468.61951	8518.03
468.62344	8546.91
468.62741	8576.01
468.63138	8612.8
468.63535	8655.76
468.63928	8698.39
468.64325	8741.36
468.64722	8704.98
468.65118	8663.4
468.65512	8622.14
468.65909	8595.16
468.66306	8598.77
468.66702	8602.37
468.67096	8606.05
468.67493	8626.81
468.67889	8654.81
468.68286	8682.8
468.6868	8701.11
468.69077	8676.21
468.69473	8647.1
468.6987	8618.09
468.70264	8599.96
468.7066	8593.58
468.71057	8587.21
468.71451	8584.76
468.71848	8609.85
468.72244	8644.5
468.72641	8679.15
468.73035	8703.69
468.73431	8707.76
468.73828	8709.98
468.74225	8712.38
468.74619	8724.19
468.75015	8741.93
468.75412	8759.67
468.75809	8774.39
468.76202	8775.03
468.76599	8773.09
468.76996	8771.15
468.77393	8760.45
468.77786	8737.4
468.78183	8714.12
468.7858	8690.84
468.78976	8683.15
468.7937	8679.57
468.79767	8675.97
468.80164	8675.79
468.8056	8691.59
468.80954	8707.27
468.81351	8723.07
468.81747	8725.95
468.82141	8718.8
468.82538	8711.59
468.82935	8704.68
468.83331	8707.41
468.83725	8710.99
468.84122	8714.59
468.84518	8733.78
468.84915	8784.5
468.85309	8834.84
468.85706	8885.64
468.86102	8938.87
468.86499	8993.19
468.86893	9047.1
468.87289	9104.79
468.87686	9175.58
468.88083	9247.93
468.88477	9319.72
468.88873	9392.73
468.8927	9466.46
468.89667	9540.19
468.9006	9615.43
468.90457	9704.92
468.90854	9799.16
468.91248	9892.68
468.91644	9981.48
468.92041	10059.3
468.92438	10136.1
468.92831	10212.2
468.93228	10249
468.93625	10263.2
468.94022	10277.3
468.94415	10278
468.94812	10205.9
468.95209	10122.8
468.95605	10039.6
468.95999	9954.84
468.96396	9866.14
468.96793	9777.44
468.97189	9688.74
468.97583	9577
468.9798	9458.37
468.98376	9339.73
468.98773	9224.58
468.99167	9125.56
468.99564	9025.77
468.9996	8925.98
469.00357	8875.43
469.00751	8862.22
469.01147	8848.92
469.01544	8835.31
469.01938	8817.39
469.02335	8798.78
469.02731	8780.17
469.03128	8777.21
469.03522	8803.62
469.03918	8830.23
469.04315	8854.74
469.04712	8845.16
469.05106	8819.58
469.05502	8793.8
469.05899	8775.39
469.06296	8781.51
469.06689	8790.86
469.07086	8800.02
469.07483	8775.9
469.0788	8717.69
469.08273	8659.93
469.0867	8607.25
469.09067	8591.32
469.09464	8587.16
469.09857	8583.04
469.10254	8576.41
469.10651	8564.87
469.11044	8553.04
469.11441	8541.13
469.11838	8541.35
469.12234	8548
469.12628	8554.6
469.13025	8558.59
469.13422	8546.61
469.13818	8532.75
469.14212	8519
469.14609	8513.7
469.15005	8520.07
469.15402	8526.45
469.15796	8532.77
469.16193	8572.51
469.16589	8620.18
469.16986	8667.86
469.1738	8716.13
469.17776	8768.79
469.18173	8821.46
469.1857	8874.12
469.18964	8891.84
469.1936	8884.63
469.19757	8877.43
469.20154	8873.45
469.20547	8897.99
469.20944	8927.09
469.21341	8956.19
469.21735	8964.25
469.22131	8933.21
469.22528	8902.16
469.22925	8870.64
469.23318	8833.22
469.23715	8792.48
469.24112	8751.73
469.24509	8712.09
469.24902	8676.12
469.25299	8640.36
469.25696	8604.6
469.26093	8566.73
469.26486	8527.13
469.26883	8487.21
469.2728	8449.88
469.27676	8430.63
469.2807	8416.88
469.28467	8403.02
469.28864	8401.13
469.2926	8423.5
469.29654	8447.21
469.30051	8471.1
469.30447	8476.96
469.30841	8473.93
469.31238	8470.88
469.31635	8465.61
469.32031	8445.22
469.32425	8423.76
469.32822	8402.14
469.33218	8398.39
469.33615	8417.51
469.34009	8436.49
469.34406	8455.62
469.34802	8478.39
469.35199	8501.95
469.35593	8525.33
469.35989	8544.46
469.36386	8546.68
469.36783	8548.9
469.37177	8551.1
469.37573	8536.07
469.3797	8509.19
469.38367	8482.3
469.3876	8460.39
469.39157	8472.33
469.39554	8490.07
469.39951	8507.81
469.40344	8516.39
469.40741	8509.19
469.41138	8501.98
469.41531	8496.05
469.41928	8504.17
469.42325	8519.14
469.42722	8534.1
469.43115	8541.48
469.43512	8526.94
469.43909	8509.2
469.44305	8491.46
469.44699	8497.91
469.45096	8526.26
469.45493	8554.81
469.45889	8582.45
469.46283	8603.21
469.4668	8622.34
469.47076	8641.46
469.47473	8662.98
469.47867	8689.18
469.48264	8715.79
469.4866	8742.4
469.49057	8753.44
469.49451	8757.03
469.49847	8760.64
469.50244	8766.88
469.50638	8795.48
469.51035	8825.14
469.51431	8854.8
469.51828	8897.42
469.52222	8955.18
469.52618	9013.39
469.53015	9071.6
469.53412	9125.16
469.53806	9177.42
469.54202	9230.08
469.54599	9292.39
469.54996	9388.3
469.55389	9483.47
469.55786	9579.38
469.56183	9666.69
469.5658	9748.46
469.56973	9829.6
469.5737	9905.99
469.57767	9952.71
469.58163	9993.73
469.58557	10034.4
469.58954	10083.3
469.59351	10144.7
469.59747	10206.3
469.60141	10262.7
469.60538	10271.2
469.60934	10257.1
469.61328	10243.1
469.61725	10214.5
469.62122	10145.5
469.62518	10071
469.62912	9996.99
469.63309	9907.16
469.63705	9804.16
469.64102	9701.04
469.64496	9600.5
469.64893	9514.48
469.65289	9431.98
469.65686	9349.48
469.6608	9264.76
469.66476	9173.38
469.66873	9081.91
469.6727	8990.44
469.67664	8923.85
469.6806	8867.31
469.68457	8810.76
469.68854	8755.76
469.69247	8717.81
469.69644	8679.55
469.70041	8641.3
469.70435	8626.76
469.70831	8639.23
469.71228	8651.7
469.71625	8663.84
469.72018	8659.67
469.72415	8652.18
469.72812	8644.7
469.73209	8641.25
469.73602	8650.6
469.73999	8660.02
469.74396	8669.33
469.74792	8673.35
469.75186	8673.9
469.75583	8674.45
469.7598	8668.93
469.76376	8634.5
469.7677	8594.62
469.77167	8554.42
469.77563	8537.99
469.7796	8556.24
469.78354	8574.95
469.78751	8591.29
469.79147	8581.81
469.79544	8560.98
469.79938	8540.31
469.80334	8531.05
469.80731	8552.49
469.81125	8577.52
469.81522	8602.75
469.81918	8622.75
469.82315	8638.55
469.82709	8654.23
469.83105	8669.59
469.83502	8680.88
469.83899	8691.42
469.84293	8701.87
469.84689	8725.39
469.85086	8776.11
469.85483	8826.84
469.85876	8877.17
469.86273	8898.67
469.8667	8908.09
469.87067	8917.52
469.8746	8924.8
469.87857	8911.77
469.88254	8898.74
469.88651	8885.71
469.89044	8884.82
469.89441	8897.01
469.89838	8909.21
469.90231	8921.89
469.90628	8946.93
469.91025	8974.71
469.91422	9002.49
469.91815	9019.34
469.92212	9004.93
469.92609	8990.51
469.93005	8976.76
469.93399	8978.96
469.93796	8991.44
469.94193	9003.91
469.94589	9006.82
469.94983	8970.34
469.9538	8925.72
469.95776	8881.09
469.96173	8838.36
469.96567	8798.42
469.96964	8758.23
469.9736	8718.39
469.97757	8682.06
469.98151	8647.4
469.98547	8612.48
469.98944	8572.5
469.99341	8519.31
469.99734	8465.13
470.00131	8410.52
470.00528	8392.68
470.00922	8402.58
470.01318	8412.56
470.01715	8419.5
470.02112	8389.35
470.02505	8354.34
470.02902	8319.07
470.03299	8295.9
470.03696	8295.63
470.04089	8295.35
470.04486	8295.08
470.04883	8316.67
470.0528	8346.33
470.05673	8375.76
470.0607	8401.33
470.06467	8395.51
470.06863	8389.69
470.07257	8383.91
470.07654	8384.74
470.08051	8392.23
470.08447	8399.71
470.08841	8408.44
470.09238	8433.26
470.09634	8461.81
470.10028	8490.14
470.10425	8509.91
470.10822	8507.13
470.11218	8504.08
470.11612	8501.04
470.12009	8497.64
470.12405	8494.04
470.12802	8490.44
470.13196	8495.02
470.13593	8530.85
470.13989	8573.07
470.14386	8615.29
470.1478	8649.49
470.15176	8674.69
470.15573	8699.64
470.1597	8727.72
470.16364	8788.89
470.1676	8862.35
470.17157	8935.8
470.17554	9006.86
470.17947	9071.17
470.18344	9135.48
470.18741	9199.78
470.19138	9259.99
470.19531	9316.92
470.19928	9374.3
470.20325	9433.99
470.20718	9526.49
470.21115	9622.95
470.21512	9719.41
470.21909	9809.46
470.22302	9887.58
470.22699	9966.3
470.23096	10045
470.23492	10117.4
470.23886	10187.2
470.24283	10257.5
470.2468	10312.4
470.25076	10271.6
470.2547	10231.2
470.25867	10190.4
470.26263	10136.8
470.2666	10071.4
470.27054	10006.5
470.27451	9937.85
470.27847	9842.92
470.28244	9741.46
470.28638	9640.8
470.29034	9547.79
470.29431	9473
470.29825	9399.29
470.30222	9324.48
470.30618	9241.33
470.31015	9153.19
470.31409	9065.72
470.31805	8983.03
470.32202	8919.9
470.32599	8860.45
470.32993	8801.47
470.33389	8746.22
470.33786	8695.66
470.34183	8645.21
470.34576	8599.59
470.34973	8604.43
470.3537	8625.22
470.35767	8646.01
470.3616	8653.98
470.36557	8628.78
470.36954	8601.61
470.3735	8574.45
470.37744	8582.7
470.38141	8613.46
470.38538	8644.23
470.38934	8671.76
470.39328	8630.44
470.39725	8585.54
470.40121	8540.63
470.40515	8511.43
470.40912	8507.26
470.41309	8503.1
470.41705	8498.93
470.42099	8477.32
470.42496	8450.43
470.42892	8423.54
470.43289	8401.99
470.43683	8408.04
470.4408	8414.13
470.44476	8420.23
470.44873	8417.55
470.45267	8407.65
470.45663	8397.67
470.4606	8392.89
470.46457	8422.6
470.46851	8460.56
470.47247	8498.81
470.47644	8530.23
470.48041	8548.7
470.48434	8566.58
470.48831	8586.75
470.49228	8637.44
470.49622	8704.7
470.50018	8772.48
470.50415	8840.17
470.50812	8907.57
470.51205	8974.41
470.51602	9041.77
470.51999	9108.32
470.52396	9174.02
470.52789	9239.21
470.53186	9303.65
470.53583	9350.78
470.53979	9393.46
470.54373	9435.82
470.5477	9470.84
470.55167	9484.92
470.55563	9498.51
470.55957	9511.99
470.56354	9488.15
470.5675	9442.42
470.57147	9396.68
470.57541	9350.33
470.57938	9272.74
470.58334	9194.69
470.58731	9116.63
470.59125	9046.37
470.59521	8985.94
470.59918	8925.51
470.60312	8865.55
470.60709	8800.29
470.61105	8733.77
470.61502	8667.24
470.61896	8613.82
470.62292	8613.65
470.62689	8614.21
470.63086	8614.63
470.6348	8606.75
470.63876	8592.06
470.64273	8577.37
470.6467	8562.67
470.65063	8548.07
470.6546	8533.35
470.65857	8518.63
470.66254	8495.5
470.66647	8458.91
470.67044	8421.5
470.67441	8386.06
470.67838	8377.85
470.68231	8383.07
470.68628	8388.34
470.69025	8395.34
470.69418	8407.74
470.69815	8421.04
470.70212	8434.35
470.70609	8438.2
470.71002	8432.73
470.71399	8427.18
470.71796	8421.95
470.72192	8421.74
470.72586	8422.56
470.72983	8423.39
470.7338	8426.62
470.73776	8436.34
470.7417	8445.99
470.74567	8455.71
470.74963	8457.9
470.7536	8456.24
470.75754	8454.59
470.76151	8453.61
470.76547	8466.92
470.76944	8480.22
470.77338	8493.43
470.77734	8497.9
470.78131	8490.69
470.78528	8483.48
470.78922	8478.23
470.79318	8521.78
470.79715	8579.16
470.80109	8636.1
470.80505	8690.39
470.80902	8734.33
470.81299	8777.94
470.81693	8822.14
470.82089	8899.25
470.82486	9000.98
470.82883	9102.71
470.83276	9202.86
470.83673	9299.96
470.8407	9396.15
470.84467	9492.33
470.8486	9591.95
470.85257	9698.68
470.85654	9805.67
470.8605	9909.22
470.86444	9964.44
470.86841	9998.53
470.87238	10032.6
470.87634	10051.6
470.88028	10024
470.88425	9990.38
470.88821	9956.77
470.89215	9939.12
470.89612	9935.51
470.90009	9931.91
470.90405	9925.46
470.90799	9870.38
470.91196	9806.91
470.91592	9743.43
470.91989	9675.38
470.92383	9597.27
470.9278	9518.55
470.93176	9439.83
470.93573	9361.75
470.93967	9284.57
470.94363	9206.79
470.9476	9131.16
470.95157	9081.27
470.95551	9031.76
470.95947	8981.87
470.96344	8929.67
470.96741	8874.79
470.97134	8820.33
470.97531	8767.79
470.97928	8748.32
470.98325	8738.07
470.98718	8727.89
470.99115	8720.83
470.99512	8722.73
470.99905	8724.93
471.00302	8726.63
471.00699	8715.69
471.01096	8695.69
471.01489	8675.85
471.01886	8654.79
471.02283	8629.19
471.02679	8602.58
471.03073	8576.17
471.0347	8573.18
471.03867	8602.45
471.04263	8632.94
471.04657	8660.28
471.05054	8647.82
471.0545	8619.27
471.05847	8590.72
471.06241	8570.77
471.06638	8575.71
471.07034	8583.21
471.07431	8590.71
471.07825	8590.47
471.08221	8584.09
471.08618	8577.72
471.09012	8572.98
471.09409	8604.04
471.09805	8639.24
471.10202	8674.44
471.10596	8694.42
471.10992	8683.33
471.11389	8672.24
471.11786	8661.16
471.1218	8683.7
471.12576	8720.01
471.12973	8756.32
471.1337	8790.25
471.13763	8804.17
471.1416	8818.06
471.14557	8831.95
471.14954	8838.18
471.15347	8836.53
471.15744	8834.87
471.16141	8836.1
471.16537	8865.33
471.16931	8901.91
471.17328	8938.78
471.17725	8961.24
471.18121	8950.26
471.18515	8937.89
471.18912	8924.1
471.19308	8884.92
471.19702	8829.52
471.20099	8773.69
471.20496	8722.65
471.20892	8690.06
471.21286	8661.46
471.21683	8632.63
471.22079	8604.9
471.22476	8578.53
471.2287	8552.4
471.23267	8526.39
471.23663	8505.33
471.2406	8485.92
471.24454	8466.67
471.2485	8449.86
471.25247	8440.73
471.25644	8432.12
471.26038	8423.58
471.26434	8424.21
471.26831	8431.42
471.27228	8438.63
471.27621	8445.43
471.28018	8443.04
471.28415	8440
471.28809	8436.97
471.29205	8433.43
471.29602	8429
471.29999	8424.56
471.30392	8420.16
471.30789	8430.49
471.31186	8446.04
471.31583	8461.6
471.31976	8476.24
471.32373	8486.28
471.3277	8496.26
471.33167	8506.24
471.3356	8507.86
471.33957	8501.76
471.34354	8495.66
471.3475	8493.52
471.35144	8519.44
471.35541	8553.25
471.35938	8587.07
471.36334	8609.02
471.36728	8607.07
471.37125	8604.02
471.37521	8601.35
471.37918	8604.74
471.38312	8611.62
471.38708	8618.55
471.39105	8629.87
471.39499	8656.48
471.39896	8686.14
471.40292	8715.8
471.40689	8749.59
471.41083	8787.72
471.41479	8826.25
471.41876	8865.1
471.42273	8908.96
471.42667	8953.89
471.43063	8999.17
471.4346	9042
471.43857	9078.01
471.4425	9113.49
471.44647	9149.25
471.45044	9238.74
471.45441	9361.81
471.45834	9483.93
471.46231	9604.13
471.46628	9601.18
471.47025	9595.36
471.47418	9589.58
471.47815	9647.97
471.48212	9809.08
471.48605	9968.95
471.49002	10130.1
471.49399	10226.1
471.49796	10303.4
471.50189	10380.2
471.50586	10446.8
471.50983	10465
471.51379	10482.1
471.51773	10499.1
471.5217	10477.5
471.52567	10423.4
471.52963	10369.4
471.53357	10307.9
471.53754	10197.7
471.5415	10074.9
471.54547	9952.17
471.54941	9832.94
471.55338	9717.44
471.55734	9602.13
471.56131	9488.1
471.56525	9392.8
471.56921	9306.32
471.57318	9219.83
471.57715	9132.95
471.58109	9045.42
471.58505	8956.99
471.58902	8868.57
471.59296	8799.93
471.59692	8750.79
471.60089	8701.91
471.60486	8653.69
471.6088	8616.64
471.61276	8581.72
471.61673	8546.79
471.6207	8526.22
471.62463	8546.02
471.6286	8565.98
471.63257	8585.94
471.63654	8587.97
471.64047	8580.26
471.64444	8572.48
471.64841	8564.62
471.65237	8554.64
471.65631	8544.74
471.66028	8534.76
471.66425	8531.46
471.66821	8537.28
471.67215	8543.06
471.67612	8548.36
471.68008	8533.43
471.68402	8513.08
471.68799	8492.57
471.69196	8479.12
471.69592	8491.24
471.69986	8503.91
471.70383	8515.78
471.70779	8492.18
471.71176	8441.18
471.7157	8390.57
471.71967	8356.38
471.72363	8405.43
471.7276	8475.01
471.73154	8544.04
471.7355	8592.76
471.73947	8608.93
471.74344	8623.65
471.74738	8639.12
471.75134	8666.4
471.75531	8699.11
471.75928	8731.82
471.76321	8769.25
471.76718	8822.37
471.77115	8877.53
471.77512	8932.69
471.77905	8946.57
471.78302	8922.46
471.78699	8898.34
471.79092	8875.01
471.79489	8862
471.79886	8850.89
471.80283	8839.78
471.80676	8839.13
471.81073	8863.52
471.8147	8887.91
471.81866	8912.31
471.8226	8887.16
471.82657	8838.66
471.83054	8790.15
471.8345	8742.17
471.83844	8701.65
471.84241	8660.82
471.84637	8619.99
471.85034	8598.9
471.85428	8600.82
471.85825	8602.76
471.86221	8602.81
471.86618	8574.04
471.87012	8537.73
471.87408	8501.15
471.87805	8483.51
471.88199	8519.88
471.88596	8558.22
471.88992	8596.32
471.89389	8628.79
471.89783	8657.12
471.90179	8685.67
471.90576	8704.75
471.90973	8683
471.91367	8652.46
471.91763	8621.7
471.9216	8601.92
471.92557	8597.21
471.9295	8593.08
471.93347	8589.54
471.93744	8594.04
471.94141	8601.82
471.94534	8609.54
471.94931	8608.66
471.95328	8582.94
471.95724	8554.67
471.96118	8526.61
471.96515	8524.29
471.96912	8542.86
471.97308	8561.43
471.97702	8576.64
471.98099	8537.73
471.98495	8491.62
471.98889	8445.86
471.99286	8414.82
471.99683	8414.26
472.00079	8413.71
472.00473	8413.16
472.0087	8434.22
472.01266	8463.88
472.01663	8493.54
472.02057	8522.33
472.02454	8545.67
472.0285	8569
472.03247	8592.33
472.03641	8644.94
472.04037	8728.09
472.04434	8811.25
472.04831	8894.49
472.05225	8977.89
472.05621	9062.16
472.06018	9146.42
472.06415	9238.28
472.06808	9347.47
472.07205	9458.03
472.07602	9569.32
472.07996	9692.09
472.08392	9823.75
472.08789	9955.41
472.09186	10081.2
472.09579	10184.6
472.09976	10284.4
472.10373	10384.2
472.1077	10450.6
472.11163	10477
472.1156	10502.3
472.11957	10520.7
472.12354	10457.2
472.12747	10367
472.13144	10276
472.13541	10188.4
472.13937	10109.6
472.14331	10032
472.14728	9953.87
472.15125	9847.3
472.15521	9721.18
472.15915	9596.03
472.16312	9469.24
472.16708	9329.96
472.17105	9189.68
472.17499	9050.48
472.17896	8924.64
472.18292	8823.47
472.18686	8723.08
472.19083	8621.9
472.19479	8558.97
472.19876	8508.52
472.2027	8458.46
472.20667	8412.92
472.21063	8397.92
472.2146	8382.92
472.21854	8368.04
472.2225	8366.3
472.22647	8376.28
472.23044	8386.25
472.23438	8394.5
472.23834	8390.4
472.24231	8383.2
472.24628	8375.99
472.25021	8385.87
472.25418	8430.58
472.25815	8476.42
472.26212	8520.57
472.26605	8540.8
472.27002	8547.73
472.27399	8554.66
472.27792	8574.24
472.28189	8637.42
472.28586	8708.38
472.28983	8779.34
472.29376	8814.76
472.29773	8812.53
472.3017	8809.48
472.30566	8809.74
472.3096	8846.47
472.31357	8893.87
472.31754	8941.27
472.3215	8973.38
472.32544	8966.7
472.32941	8958.39
472.33337	8950.07
472.33734	8985.2
472.34128	9045.29
472.34525	9105.84
472.34921	9161.29
472.35318	9136.64
472.35712	9109.14
472.36108	9081.42
472.36505	9085.16
472.36902	9134.6
472.37296	9183.67
472.37692	9233.11
472.38089	9260.3
472.38483	9281.75
472.38879	9303.37
472.39276	9318.75
472.39673	9306.55
472.40067	9294.45
472.40463	9282.25
472.4086	9266.56
472.41257	9248.23
472.4165	9230.04
472.42047	9213.74
472.42444	9209.4
472.42841	9207.74
472.43234	9206.09
472.43631	9187.21
472.44028	9138.58
472.44424	9089.24
472.44818	9039.27
472.45215	8976.25
472.45612	8906.81
472.46008	8837.36
472.46402	8783.29
472.46799	8773.26
472.47195	8769.94
472.47589	8766.64
472.47986	8730.9
472.48383	8664.7
472.48779	8598.18
472.49173	8536.54
472.4957	8520.29
472.49966	8515.01
472.50363	8509.74
472.50757	8498.09
472.51154	8471.46
472.5155	8444.57
472.51947	8417.69
472.52341	8409.74
472.52737	8410.85
472.53134	8411.96
472.53531	8412.23
472.53925	8399.83
472.54321	8387.33
472.54718	8374.83
472.55115	8355.92
472.55508	8329.52
472.55905	8302.91
472.56302	8277.05
472.56699	8288.54
472.57092	8308.11
472.57489	8327.83
472.57886	8334.81
472.58279	8299.61
472.58676	8264.13
472.59073	8229.47
472.5947	8233.25
472.59863	8262.68
472.6026	8292.34
472.60657	8317.01
472.61053	8317.56
472.61447	8313.14
472.61844	8308.7
472.62241	8314.41
472.62637	8334.94
472.63031	8355.57
472.63428	8380.33
472.63824	8445.17
472.64221	8527.78
472.64615	8609.74
472.65012	8681.4
472.65408	8723.53
472.65805	8761.86
472.66199	8799.9
472.66595	8882.55
472.66992	9000.91
472.67386	9118.36
472.67783	9241.98
472.68179	9417.77
472.68576	9602.93
472.6897	9786.66
472.69366	9935.96
472.69763	10010.1
472.7016	10084.3
472.70554	10157.9
472.7095	10189.9
472.71347	10205.2
472.71744	10220.4
472.72137	10237.6
472.72534	10273.7
472.72931	10309.8
472.73328	10345.9
472.73721	10315.4
472.74118	10216.7
472.74515	10118.1
472.74911	10017.7
472.75305	9888.65
472.75702	9752.55
472.76099	9616.46
472.76495	9484.62
472.76889	9365.26
472.77286	9244.99
472.77682	9125.1
472.78076	9014.22
472.78473	8907.51
472.7887	8800.79
472.79266	8699.24
472.7966	8618.52
472.80057	8541.02
472.80453	8463.52
472.8085	8426.95
472.81244	8440.23
472.81641	8454.36
472.82037	8465.24
472.82434	8446.82
472.82828	8417.66
472.83224	8388.28
472.83621	8373.08
472.84018	8392.51
472.84412	8415.11
472.84808	8437.89
472.85205	8443.34
472.85602	8437.24
472.85995	8431.19
472.86392	8421.76
472.86789	8383.24
472.87183	8341.16
472.87579	8298.75
472.87976	8299.49
472.88373	8373.93
472.88766	8447.8
472.89163	8522.25
472.8956	8542.53
472.89957	8545.86
472.9035	8549.16
472.90747	8553.5
472.91144	8563.78
472.91541	8574.06
472.91934	8584.26
472.92331	8601.09
472.92728	8623.54
472.93124	8645.99
472.93518	8668.17
472.93915	8689.45
472.94312	8710.51
472.94708	8731.58
472.95102	8739.25
472.95499	8717.3
472.95895	8695.36
472.96292	8677.46
472.96686	8719
472.97083	8793.29
472.97479	8867.57
472.97873	8924.97
472.9827	8926.56
472.98666	8918.79
472.99063	8911.01
472.99457	8882.2
472.99854	8830.86
473.0025	8779.3
473.00647	8730.3
473.01041	8701.14
473.01437	8678.08
473.01834	8655.03
473.02231	8637
473.02625	8629.66
473.03021	8623.01
473.03418	8616.35
473.03815	8617.4
473.04208	8622.63
473.04605	8627.9
473.05002	8626.95
473.05399	8574.3
473.05792	8517.8
473.06189	8460.85
473.06586	8441.02
473.06979	8471.55
473.07376	8502.32
473.07773	8533.08
473.0817	8545.73
473.08563	8554
473.0896	8562.33
473.09357	8570.16
473.09753	8575.99
473.10147	8581.76
473.10544	8587.58
473.10941	8573.63
473.11337	8545.64
473.11731	8517.86
473.12128	8493.96
473.12524	8501.12
473.12921	8513.62
473.13315	8526.02
473.13712	8528.19
473.14108	8512.11
473.14505	8496.03
473.14899	8481.43
473.15295	8481.8
473.15692	8489.58
473.16089	8497.36
473.16483	8513.46
473.16879	8553.54
473.17276	8597.06
473.1767	8640.25
473.18066	8695.95
473.18463	8762.54
473.1886	8829.21
473.19254	8901.86
473.1965	9019.49
473.20047	9148.94
473.20444	9278.38
473.20837	9391.62
473.21234	9476.1
473.21631	9559.26
473.22028	9642.41
473.22421	9688.16
473.22818	9717.6
473.23215	9747.05
473.23611	9780.85
473.24005	9844.45
473.24402	9909.86
473.24799	9975.28
473.25195	10025.5
473.25589	10058.3
473.25986	10091.4
473.26382	10124.4
473.26776	10046.9
473.27173	9950.69
473.2757	9854.51
473.27966	9774.68
473.2836	9745.19
473.28757	9715.47
473.29153	9685.75
473.2955	9619.25
473.29944	9532.61
473.30341	9445.3
473.30737	9362.99
473.31134	9307.82
473.31528	9257.21
473.31924	9206.22
473.32321	9164.34
473.32718	9135.72
473.33112	9107.33
473.33508	9075.32
473.33905	9012.91
473.34302	8937.79
473.34695	8863.25
473.35092	8798.25
473.35489	8758.56
473.35886	8721.9
473.36279	8685.51
473.36676	8652.25
473.37073	8621.48
473.37466	8590.95
473.37863	8562.53
473.3826	8548.32
473.38657	8537.21
473.3905	8526.18
473.39447	8511.22
473.39844	8489.73
473.4024	8468.11
473.40634	8446.65
473.41031	8444.89
473.41428	8450.16
473.41824	8455.42
473.42218	8462.71
473.42615	8483.08
473.43011	8503.64
473.43408	8524.2
473.43802	8527.14
473.44199	8513.84
473.44595	8500.53
473.44992	8487
473.45386	8458
473.45782	8426.89
473.46179	8395.78
473.46573	8370.03
473.4697	8356.45
473.47366	8342.87
473.47763	8330.05
473.48157	8353.39
473.48553	8395.34
473.4895	8437.28
473.49347	8471.75
473.49741	8474.22
473.50137	8472.56
473.50534	8471.1
473.50931	8496.92
473.51324	8554.81
473.51721	8613.14
473.52118	8669.5
473.52515	8711.71
473.52908	8748.57
473.53305	8785.71
473.53702	8813.9
473.54099	8822.94
473.54492	8830.11
473.54889	8837.38
473.55286	8853.64
473.55682	8875.26
473.56076	8896.71
473.56473	8914
473.5687	8908.99
473.57263	8900.19
473.5766	8891.32
473.58057	8863.44
473.58453	8807.06
473.58847	8751.1
473.59244	8694.71
473.59641	8669.38
473.60037	8652.2
473.60431	8635.14
473.60828	8615.89
473.61224	8587
473.61621	8558.11
473.62015	8529.44
473.62411	8515.42
473.62808	8512.65
473.63205	8509.88
473.63599	8505.86
473.63995	8473.62
473.64392	8438.62
473.64789	8403.62
473.65182	8387.62
473.65579	8406.75
473.65976	8425.87
473.6637	8444.77
473.66766	8462.18
473.67163	8478.85
473.6756	8495.51
473.67953	8502.05
473.6835	8473.89
473.68747	8441.74
473.69144	8409.82
473.69537	8392.87
473.69934	8390.65
473.70331	8388.43
473.70728	8385.6
473.71121	8379.26
473.71518	8371.78
473.71915	8364.3
473.72311	8377.89
473.72705	8429.65
473.73102	8484.65
473.73499	8539.65
473.73895	8594.38
473.74289	8648.57
473.74686	8703.17
473.75082	8755.32
473.75479	8796.17
473.75873	8835.32
473.7627	8874.76
473.76666	8946.79
473.7706	9055.99
473.77457	9166.03
473.77853	9276.07
473.7825	9371.03
473.78644	9462.55
473.79041	9554.77
473.79437	9640
473.79834	9702.92
473.80228	9765.36
473.80624	9828.28
473.81021	9876.58
473.81418	9916.02
473.81812	9955.16
473.82208	9994.26
473.82605	10029.7
473.83002	10064.9
473.83395	10099.9
473.83792	10093.2
473.84189	10023.6
473.84586	9954.02
473.84979	9882.53
473.85376	9778.68
473.85773	9662.29
473.86166	9546.8
473.86563	9452.69
473.8696	9422.62
473.87357	9398.5
473.8775	9374.3
473.88147	9339.04
473.88544	9294.6
473.8894	9250.15
473.89334	9197.18
473.89731	9098.77
473.90128	8988.45
473.90524	8878.13
473.90918	8778.48
473.91315	8693.72
473.91711	8609.83
473.92108	8526.38
473.92502	8461.87
473.92899	8404.21
473.93295	8346.56
473.93692	8301.42
473.94086	8305.91
473.94482	8314.8
473.94879	8323.69
473.95276	8299.29
473.9567	8244
473.96066	8188.29
473.96463	8132.57
473.96857	8161.7
473.97253	8200.59
473.9765	8239.48
473.98047	8266.51
473.98441	8264.86
473.98837	8263.2
473.99234	8261.54
473.99631	8248.21
474.00024	8229.47
474.00421	8210.58
474.00818	8190.13
474.01215	8158.62
474.01608	8126.71
474.02005	8094.56
474.02402	8075.99
474.02798	8073.77
474.03192	8071.56
474.03589	8072.15
474.03986	8098.08
474.04382	8132.45
474.04776	8166.56
474.05173	8199.63
474.05569	8229.58
474.05963	8259.08
474.0636	8289.33
474.06757	8331.95
474.07153	8383.23
474.07547	8434.12
474.07944	8481.43
474.0834	8511.87
474.08737	8538.54
474.09131	8565
474.09528	8600.78
474.09924	8648.67
474.10321	8697
474.10715	8744.12
474.11111	8769.05
474.11508	8786.79
474.11905	8804.54
474.12299	8815.39
474.12695	8802.98
474.13092	8789.37
474.13489	8775.76
474.13882	8782.94
474.14279	8805.67
474.14676	8828.4
474.15073	8851.13
474.15466	8804.57
474.15863	8754.85
474.1626	8705.13
474.16653	8646.81
474.1705	8571.13
474.17447	8495.46
474.17844	8419.79
474.18237	8379.09
474.18634	8350.48
474.19031	8321.87
474.19427	8297.98
474.19821	8298.25
474.20218	8299.35
474.20615	8300.46
474.21011	8297.42
474.21405	8290.53
474.21802	8283.58
474.22198	8281.46
474.22595	8310.72
474.22989	8348.68
474.23386	8386.93
474.23782	8399.25
474.24179	8361.59
474.24573	8321.35
474.24969	8282.86
474.25366	8280.14
474.2576	8297.75
474.26157	8315.49
474.26553	8340.21
474.2695	8390.21
474.27344	8444.24
474.2774	8498.68
474.28137	8534.72
474.28534	8550.28
474.28928	8565.41
474.29324	8583.46
474.29721	8654.45
474.30118	8738.9
474.30511	8822.69
474.30908	8916.87
474.31305	9039.42
474.31702	9162.49
474.32095	9284.61
474.32492	9401.62
474.32889	9514.95
474.33286	9628.28
474.33679	9739.24
474.34076	9787.13
474.34473	9834.53
474.34869	9881.92
474.35263	9948.22
474.3566	10043.8
474.36057	10139.3
474.3645	10232.8
474.36847	10221
474.37244	10179.3
474.3764	10137.7
474.38034	10102.7
474.38431	10092.5
474.38828	10082.8
474.39224	10071.9
474.39618	9995.79
474.40015	9867.18
474.40411	9738.57
474.40808	9619.99
474.41202	9553.76
474.41599	9499.43
474.41995	9445.1
474.42392	9378.81
474.42786	9294.08
474.43182	9207.97
474.43579	9121.25
474.43976	9026.79
474.4437	8929.42
474.44766	8831.29
474.45163	8746.16
474.4556	8700.46
474.45953	8660.49
474.4635	8620.21
474.46747	8565.19
474.47141	8497.25
474.47537	8428.78
474.47934	8363.56
474.48331	8344.17
474.48724	8333.42
474.49121	8322.58
474.49518	8309.43
474.49915	8290.86
474.50308	8272.43
474.50705	8253.86
474.51102	8219.47
474.51498	8177.81
474.51892	8136.46
474.52289	8098.3
474.52686	8102.19
474.53082	8106.08
474.53476	8109.94
474.53873	8095.35
474.54269	8059.87
474.54666	8024.39
474.5506	7991.03
474.55457	7996.57
474.55853	8011.29
474.56247	8025.9
474.56644	8037.55
474.5704	8039.76
474.57437	8041.98
474.57831	8044.05
474.58228	8042.72
474.58624	8039.11
474.59021	8035.5
474.59415	8034.81
474.59811	8046.18
474.60208	8060.04
474.60605	8073.9
474.60999	8100.22
474.61395	8143.39
474.61792	8187
474.62189	8231.77
474.62582	8287.56
474.62979	8348.27
474.63376	8408.97
474.63773	8466.24
474.64166	8514.27
474.64563	8561.77
474.6496	8609.27
474.65356	8657.09
474.6575	8704.78
474.66147	8752.84
474.66544	8796.76
474.66937	8801.73
474.67334	8801.45
474.67731	8801.18
474.68127	8797.08
474.68521	8786.33
474.68918	8775.5
474.69315	8764.67
474.69711	8708.3
474.70105	8637.61
474.70502	8566.37
474.70898	8489.04
474.71295	8373.76
474.71689	8259.37
474.72086	8144.09
474.72482	8104.86
474.72879	8132.85
474.73273	8160.64
474.73669	8187.94
474.74066	8207.78
474.74463	8226.12
474.74857	8244.31
474.75253	8248.28
474.7565	8219.95
474.76044	8191.83
474.7644	8164.69
474.76837	8156.36
474.77234	8158.3
474.77628	8160.22
474.78024	8169.84
474.78421	8205.99
474.78818	8246.54
474.79211	8286.79
474.79608	8305.14
474.80005	8299.81
474.80402	8294.27
474.80795	8293.22
474.81192	8327.49
474.81589	8373.32
474.81985	8419.15
474.82379	8478.8
474.82776	8569.33
474.83173	8662.11
474.83569	8754.88
474.83963	8843.24
474.8436	8930.28
474.84756	9017.31
474.85153	9108.16
474.85547	9225.84
474.85944	9346.95
474.8634	9468.06
474.86734	9572.18
474.87131	9655.34
474.87527	9738.49
474.87924	9821.65
474.88318	9893.76
474.88715	9964.04
474.89111	10034.3
474.89508	10084.6
474.89902	10058.7
474.90298	10032.7
474.90695	10006.6
474.91092	9938.74
474.91486	9842.82
474.91882	9746.15
474.92279	9640.79
474.92676	9471.04
474.93069	9292.7
474.93466	9112.98
474.93863	8959.94
474.9426	8851.01
474.94653	8742.91
474.9505	8638.66
474.95447	8586.42
474.9584	8558.31
474.96237	8529.97
474.96634	8507.52
474.97031	8501.52
474.97424	8497.67
474.97821	8493.79
474.98218	8471.81
474.98615	8434.31
474.99008	8397.1
474.99405	8368.08
474.99802	8390.35
475.00198	8426.19
475.00592	8461.74
475.00989	8489.16
475.01385	8501.77
475.01782	8513.69
475.02176	8525.52
475.02573	8541.78
475.02969	8559.83
475.03366	8577.89
475.0376	8580.82
475.04156	8496.74
475.04553	8408.31
475.0495	8319.89
475.05344	8265.04
475.0574	8244.48
475.06137	8223.93
475.06531	8203.53
475.06927	8212.21
475.07324	8224.98
475.07721	8237.76
475.08115	8244.09
475.08511	8233.28
475.08908	8222.47
475.09305	8211.66
475.09698	8220.17
475.10095	8238.78
475.10492	8257.39
475.10889	8269.67
475.11282	8247.97
475.11679	8222.14
475.12076	8196.38
475.12473	8203.27
475.12866	8250.58
475.13263	8298.26
475.1366	8346.67
475.14056	8400.85
475.1445	8456.8
475.14847	8513.19
475.15244	8579.29
475.15637	8666.49
475.16034	8756.57
475.16431	8845.92
475.16827	8879.64
475.17221	8875.78
475.17618	8871.89
475.18015	8871.56
475.18411	8888.83
475.18805	8909.51
475.19202	8930.34
475.19598	8947.59
475.19995	8959.59
475.20389	8971.42
475.20786	8983.34
475.21182	8930.1
475.21579	8858.16
475.21973	8786.77
475.22369	8722.64
475.22766	8693.62
475.23163	8665.07
475.23557	8636.74
475.23953	8580.46
475.2435	8501.85
475.24747	8423.24
475.2514	8345.23
475.25537	8322.87
475.25934	8303.7
475.26328	8284.68
475.26724	8277.35
475.27121	8293.15
475.27518	8308.95
475.27911	8324.6
475.28308	8339.04
475.28705	8352.93
475.29102	8366.82
475.29495	8378.43
475.29892	8381.17
475.30289	8383.11
475.30685	8385
475.31079	8383.19
475.31476	8377.64
475.31873	8372.1
475.32269	8372.66
475.32663	8410.37
475.3306	8460.09
475.33456	8509.81
475.33853	8569.62
475.34247	8647.41
475.34644	8727.13
475.3504	8807.39
475.35434	8900.3
475.35831	9001.19
475.36227	9102.09
475.36624	9213.65
475.37018	9365.85
475.37415	9525.85
475.37811	9685.85
475.38208	9805.13
475.38602	9876.37
475.38998	9948.16
475.39395	10019.8
475.39792	10074.7
475.40186	10126
475.40582	10177.7
475.40979	10230.4
475.41376	10286.8
475.41769	10342.8
475.42166	10399.2
475.42563	10381.9
475.4296	10321.5
475.43353	10261.5
475.4375	10199.5
475.44147	10103.6
475.44543	10006.6
475.44937	9910.42
475.45334	9791.28
475.45731	9639.89
475.46124	9489.67
475.46521	9339.14
475.46918	9206
475.47314	9078.49
475.47708	8951.97
475.48105	8831.99
475.48502	8736.45
475.48898	8642.28
475.49292	8549.33
475.49689	8470.86
475.50085	8404.75
475.50482	8338.64
475.50876	8276.71
475.51273	8231.78
475.51669	8191.31
475.52066	8150.84
475.5246	8121.01
475.52856	8106.57
475.53253	8092.96
475.5365	8080.71
475.54044	8091.13
475.5444	8111.41
475.54837	8131.69
475.55231	8143.74
475.55627	8130.07
475.56024	8113.44
475.56421	8096.8
475.56815	8106
475.57211	8138.5
475.57608	8171
475.58005	8201.38
475.58398	8183.62
475.58795	8159.18
475.59192	8134.74
475.59589	8115.12
475.59982	8106.04
475.60379	8096.89
475.60776	8087.74
475.61172	8108.53
475.61566	8141.88
475.61963	8175.49
475.6236	8207.97
475.62756	8229.36
475.6315	8250.59
475.63547	8271.98
475.63943	8314.84
475.6434	8380.53
475.64734	8445.72
475.65131	8505.59
475.65527	8502.13
475.65921	8481.74
475.66318	8461.18
475.66714	8467.96
475.67111	8542.37
475.67505	8618.17
475.67902	8691.9
475.68298	8715.74
475.68695	8707.71
475.69089	8699.73
475.69485	8699.16
475.69882	8727.48
475.70279	8761.65
475.70673	8795.55
475.71069	8821.17
475.71466	8836.46
475.71863	8851.46
475.72256	8863.09
475.72653	8839.8
475.7305	8804.32
475.73447	8768.84
475.7384	8734.12
475.74237	8700.41
475.74634	8666.8
475.75027	8633.44
475.75424	8583.33
475.75821	8522.22
475.76218	8461.11
475.76611	8403.41
475.77008	8379.65
475.77405	8359.13
475.77802	8338.62
475.78195	8334.79
475.78592	8358.13
475.78989	8381.46
475.79385	8404.79
475.79779	8448.03
475.80176	8497.48
475.80573	8546.92
475.80969	8599.21
475.81363	8664.95
475.8176	8731.2
475.82156	8797.44
475.82553	8841.92
475.82947	8868.66
475.83344	8895.6
475.8374	8927.15
475.84137	8993.12
475.84531	9065.62
475.84927	9138.67
475.85324	9195.35
475.85718	9219.83
475.86115	9244.5
475.86511	9268.6
475.86908	9285.44
475.87302	9298.4
475.87698	9311.45
475.88095	9319.8
475.88492	9313.71
475.88885	9305.44
475.89282	9297.1
475.89679	9297.02
475.90076	9304.7
475.90469	9312.4
475.90866	9322.21
475.91263	9348.02
475.9166	9378.29
475.92053	9408.34
475.9245	9444.75
475.92847	9493.87
475.93243	9543.6
475.93637	9592.94
475.94034	9596.03
475.94431	9576.86
475.94824	9557.84
475.95221	9545.08
475.95618	9583.57
475.96014	9624.31
475.96408	9664.75
475.96805	9651.2
475.97202	9572.31
475.97598	9493.42
475.97992	9415.14
475.98389	9304.28
475.98785	9187.62
475.99182	9070.95
475.99576	8957.82
475.99973	8852.21
476.00369	8746.6
476.00766	8640.99
476.0116	8569.29
476.01556	8516.79
476.01953	8464.29
476.0235	8412.47
476.02744	8364.77
476.0314	8317.27
476.03537	8269.79
476.03934	8233.94
476.04327	8214.69
476.04724	8195.28
476.05121	8175.31
476.05515	8150.65
476.05911	8123.71
476.06308	8096.76
476.06705	8077.17
476.07098	8075.33
476.07495	8075.61
476.07892	8075.88
476.08289	8061.05
476.08682	8035.7
476.09079	8010.15
476.09476	7990.07
476.09872	8001.33
476.10266	8018.93
476.10663	8036.67
476.1106	8056.9
476.11456	8081.28
476.1185	8105.54
476.12247	8130.02
476.12643	8145.27
476.1304	8157.48
476.13434	8169.55
476.13831	8179.34
476.14227	8177.6
476.14621	8175.66
476.15018	8173.96
476.15414	8206.98
476.15811	8270.04
476.16205	8332.6
476.16602	8394.7
476.16998	8449.94
476.17395	8504.35
476.17789	8558.34
476.18185	8605.21
476.18582	8632.98
476.18979	8660.84
476.19373	8688.56
476.19769	8702.97
476.20166	8711.26
476.20563	8719.76
476.20956	8730.3
476.21353	8753.58
476.2175	8778.37
476.22147	8802.74
476.2254	8810.31
476.22937	8800.52
476.23334	8790.8
476.2373	8774.11
476.24124	8709.11
476.24521	8627.66
476.24918	8546.48
476.25311	8482.11
476.25708	8450.63
476.26105	8422
476.26501	8392.14
476.26895	8360.41
476.27292	8328.08
476.27689	8295.71
476.28085	8275.06
476.28479	8306.93
476.28876	8347.16
476.29272	8386.78
476.29669	8406.49
476.30063	8403.13
476.3046	8399.51
476.30856	8398.79
476.31253	8444
476.31647	8497.61
476.32043	8551.45
476.3244	8616.73
476.32837	8717.53
476.33231	8817.3
476.33627	8918.59
476.34024	9011.83
476.34418	9098.34
476.34814	9185.41
476.35211	9269.48
476.35608	9323.46
476.36002	9375.6
476.36398	9429.21
476.36795	9515.85
476.37192	9643.82
476.37585	9770.78
476.37982	9896.12
476.38379	9989.32
476.38776	10071.4
476.39169	10152.8
476.39566	10224.4
476.39963	10252.8
476.40359	10278.5
476.40753	10301.8
476.4115	10281.6
476.41547	10227.3
476.41943	10173.4
476.42337	10110.5
476.42734	10003.6
476.4313	9885.51
476.43527	9767.13
476.43921	9655.82
476.44318	9564.78
476.44714	9475.21
476.45108	9381.7
476.45505	9313.6
476.45901	9259.88
476.46298	9205.96
476.46692	9155.54
476.47089	9101.89
476.47485	9047.8
476.47882	8991.5
476.48276	8935.22
476.48672	8883.78
476.49069	8832.05
476.49466	8788.99
476.4986	8709.07
476.50256	8623.19
476.50653	8537.33
476.5105	8473.21
476.51443	8470.8
476.5184	8468.18
476.52237	8463.07
476.52634	8448.28
476.53027	8430.68
476.53424	8412.67
476.53821	8402.62
476.54214	8381.34
476.54611	8359.79
476.55008	8338.36
476.55405	8322.84
476.55798	8313.19
476.56195	8303.43
476.56592	8293.46
476.56989	8272.25
476.57382	8247.95
476.57779	8223.53
476.58176	8214.82
476.58572	8243.65
476.58966	8273.42
476.59363	8301.36
476.5976	8299.39
476.60156	8278.42
476.6055	8257.63
476.60947	8246.24
476.61343	8257.57
476.6174	8273.22
476.62134	8287.78
476.62531	8304.69
476.62927	8332.56
476.63324	8360.57
476.63718	8388.09
476.64114	8404.35
476.64511	8416.31
476.64905	8428.08
476.65302	8452.01
476.65698	8493.6
476.66095	8536.34
476.66489	8579.01
476.66885	8614.73
476.67282	8645.03
476.67679	8675.32
476.68073	8708.18
476.68469	8717.02
476.68866	8723.73
476.69263	8730.58
476.69656	8723.33
476.70053	8694.85
476.7045	8666.67
476.70847	8635.16
476.7124	8601.44
476.71637	8568.13
476.72034	8534.99
476.7243	8508.24
476.72824	8504.43
476.73221	8500.7
476.73618	8493.83
476.74011	8468.61
476.74408	8437.45
476.74805	8406.26
476.75201	8381.1
476.75595	8383.28
476.75992	8390.68
476.76389	8397.98
476.76785	8409.05
476.77179	8425.26
476.77576	8441.48
476.77972	8458.98
476.78369	8509.26
476.78763	8576.48
476.7916	8643.86
476.79556	8718.14
476.79953	8787.51
476.80347	8855.02
476.80743	8923.36
476.8114	9017.83
476.81537	9133.6
476.81931	9248.39
476.82327	9364.45
476.82724	9463.37
476.83121	9556.88
476.83514	9649.54
476.83911	9740.12
476.84308	9808.35
476.84702	9875.21
476.85098	9949.37
476.85495	10031.4
476.85892	10110.5
476.86285	10189.5
476.86682	10242
476.87079	10231.6
476.87476	10219.5
476.87869	10207.1
476.88266	10163.4
476.88663	10092.6
476.89059	10022.1
476.89453	9956.44
476.8985	9925.2
476.90247	9899.19
476.90643	9873.53
476.91037	9820.39
476.91434	9744.68
476.9183	9669.16
476.92227	9590.16
476.92621	9523.65
476.93018	9469.12
476.93414	9414.51
476.93808	9362.13
476.94205	9285.07
476.94601	9204.05
476.94998	9122.59
476.95392	9027.06
476.95789	8937.82
476.96185	8848.5
476.96582	8769.44
476.96976	8731.88
476.97372	8706.71
476.97769	8681.41
476.98166	8645.13
476.9856	8592.91
476.98956	8538.61
476.99353	8480.82
476.9975	8422.39
477.00143	8373.25
477.0054	8323.4
477.00937	8291.86
477.01334	8280.72
477.01727	8271.12
477.02124	8261.34
477.02521	8259.46
477.02917	8260.43
477.03311	8261.36
477.03708	8260.59
477.04105	8253.83
477.04498	8246.24
477.04895	8238.49
477.05292	8233.65
477.05688	8222.87
477.06082	8212.17
477.06479	8202.06
477.06876	8219.18
477.07272	8254.29
477.07666	8289
477.08063	8327.77
477.08459	8323.99
477.08856	8316.49
477.0925	8309.23
477.09647	8303.75
477.10043	8330.88
477.1044	8357.82
477.10834	8388.96
477.1123	8431.77
477.11627	8474.52
477.12024	8517.21
477.12418	8556.1
477.12814	8599.62
477.13211	8643.63
477.13605	8687.7
477.14001	8722.18
477.14398	8729.96
477.14795	8737.96
477.15189	8749.2
477.15585	8777.11
477.15982	8810.07
477.16379	8843.15
477.16772	8854.22
477.17169	8840.1
477.17566	8824.47
477.17963	8804.53
477.18356	8771.3
477.18753	8739.09
477.1915	8706.91
477.19547	8688.9
477.1994	8677.71
477.20337	8666.26
477.20734	8655.05
477.2113	8609.65
477.21524	8565.92
477.21921	8521.82
477.22318	8475.46
477.22714	8437.36
477.23108	8401.43
477.23505	8365.08
477.23901	8365.77
477.24295	8419.94
477.24692	8474.3
477.25089	8524.53
477.25485	8560.18
477.25879	8598.35
477.26276	8636.36
477.26672	8698.41
477.27069	8798.45
477.27463	8897.91
477.27859	8997.9
477.28256	9073.21
477.28653	9111.68
477.29047	9149.95
477.29443	9195.88
477.2984	9300.3
477.30237	9419.74
477.3063	9538.13
477.31027	9666.26
477.31424	9742.18
477.31821	9815.87
477.32214	9883.39
477.32611	9896.8
477.33008	9917.19
477.33401	9937.44
477.33798	9963.46
477.34195	9978.69
477.34592	9988.92
477.34985	9999.39
477.35382	9982.62
477.35779	9934.51
477.36176	9885.61
477.36569	9833.03
477.36966	9782.95
477.37363	9741.26
477.37759	9699.82
477.38153	9619.89
477.3855	9533.26
477.38947	9448.15
477.39343	9364.18
477.39737	9309.49
477.40134	9248.33
477.4053	9187.15
477.40927	9124.51
477.41321	9046.06
477.41718	8965.25
477.42114	8884.5
477.42511	8833.98
477.42905	8820.75
477.43301	8807.31
477.43698	8790.14
477.44092	8756.85
477.44489	8722.5
477.44885	8687.95
477.45282	8645.08
477.45676	8579.44
477.46072	8513.15
477.46469	8446.71
477.46866	8406.65
477.4726	8372.44
477.47656	8337.91
477.48053	8311.67
477.4845	8299.9
477.48843	8288.19
477.4924	8276.45
477.49637	8274.4
477.50034	8292.24
477.50427	8309.96
477.50824	8325.03
477.51221	8316.2
477.51617	8301.52
477.52011	8286.87
477.52408	8277.9
477.52805	8282.9
477.53198	8289.76
477.53595	8296.53
477.53992	8306.64
477.54388	8314.54
477.54782	8322.25
477.55179	8341.96
477.55576	8408.88
477.55972	8483.57
477.56366	8557.58
477.56763	8606.47
477.57159	8626.92
477.57556	8646.02
477.5795	8666.5
477.58347	8701.94
477.58743	8733.99
477.5914	8766.16
477.59534	8798.64
477.5993	8833.56
477.60327	8868.73
477.60724	8904
477.61118	8941.67
477.61514	8970.21
477.61911	8999.05
477.62308	9021.2
477.62701	9022.81
477.63098	9024.88
477.63495	9027.07
477.63889	9030.93
477.64285	9031.45
477.64682	9032.16
477.65079	9032.56
477.65472	9009.8
477.65869	8992.48
477.66266	8975.1
477.66663	8963.61
477.67056	8978.43
477.67453	8996.65
477.6785	9014.68
477.68246	9047.44
477.6864	9114.2
477.69037	9180.84
477.69434	9241.68
477.6983	9256.68
477.70224	9253.69
477.70621	9250.39
477.71017	9305.99
477.71414	9411.27
477.71808	9516.48
477.72205	9622.64
477.72601	9723.81
477.72995	9816.57
477.73392	9910.38
477.73788	9992.64
477.74185	10040.7
477.74579	10084.6
477.74976	10129.1
477.75372	10166
477.75769	10194.2
477.76163	10222.3
477.76559	10244
477.76956	10189.1
477.77353	10128.1
477.77747	10067.8
477.78143	10013.2
477.7854	9980.7
477.78937	9948.91
477.7933	9917.49
477.79727	9885.23
477.80124	9858.64
477.80521	9832.04
477.80914	9789.71
477.81311	9703.55
477.81708	9616.94
477.82104	9530.05
477.82498	9465.47
477.82895	9403.45
477.83292	9341.44
477.83685	9279.98
477.84082	9210.02
477.84479	9135.59
477.84875	9061.29
477.85269	9004.18
477.85666	8986.97
477.86063	8972.36
477.86459	8957.7
477.86853	8911.35
477.8725	8853.9
477.87646	8796.38
477.88043	8736.85
477.88437	8675.83
477.88834	8617.86
477.8923	8559.62
477.89627	8506.26
477.90021	8453.63
477.90417	8400.08
477.90814	8346.63
477.91211	8339.71
477.91605	8337.2
477.92001	8334.59
477.92398	8339.16
477.92792	8349.47
477.93188	8358.17
477.93585	8367.02
477.93982	8350.71
477.94376	8334.14
477.94772	8317.31
477.95169	8303.9
477.95566	8311.01
477.95959	8318.17
477.96356	8325.29
477.96753	8329.68
477.9715	8323.37
477.97543	8317.14
477.9794	8310.89
477.98337	8341.64
477.98734	8383.8
477.99127	8425.55
477.99524	8456.62
477.99921	8468.16
478.00317	8479.47
478.00711	8490.42
478.01108	8545.27
478.01505	8612.88
478.01901	8680.62
478.02295	8748.82
478.02692	8827.92
478.03088	8908.04
478.03482	8987.67
478.03879	9055.17
478.04276	9101.59
478.04672	9147.76
478.05066	9193.49
478.05463	9203.56
478.05859	9202.84
478.06256	9202.27
478.0665	9210.66
478.07047	9248.61
478.07443	9288.84
478.0784	9329.22
478.08234	9347.78
478.0863	9353.97
478.09027	9360.17
478.09424	9366.88
478.09818	9372.19
478.10214	9382.71
478.10611	9393.06
478.11008	9392.17
478.11401	9374.26
478.11798	9355.57
478.12195	9336.65
478.12589	9332.49
478.12985	9334.05
478.13382	9335.37
478.13779	9352.24
478.14172	9437.85
478.14569	9525.48
478.14966	9613.06
478.15363	9693.51
478.15756	9758.91
478.16153	9824.97
478.1655	9891.2
478.16946	9971.48
478.1734	10050
478.17737	10129.4
478.18134	10191.4
478.1853	10205.6
478.18924	10220.1
478.19321	10235.1
478.19717	10222.2
478.20114	10201
478.20508	10180.1
478.20905	10157
478.21301	10125.6
478.21698	10096.2
478.22092	10067
478.22488	10023.9
478.22885	9963.77
478.23279	9904.12
478.23676	9844.42
478.24072	9796.93
478.24469	9753.76
478.24863	9710.84
478.25259	9652.09
478.25656	9552.66
478.26053	9450.82
478.26447	9349.74
478.26843	9290.81
478.2724	9255.27
478.27637	9219.85
478.2803	9182.17
478.28427	9112.07
478.28824	9042.56
478.29221	8972.93
478.29614	8902.38
478.30011	8829.92
478.30408	8757.38
478.30804	8684.69
478.31198	8635.96
478.31595	8592.59
478.31992	8549.06
478.32385	8506.85
478.32782	8465.38
478.33179	8423.37
478.33575	8381.28
478.33969	8373.35
478.34366	8389.5
478.34763	8405.6
478.35159	8421.15
478.35553	8409.33
478.3595	8396.22
478.36346	8383.06
478.36743	8375.01
478.37137	8373.79
478.37534	8372.59
478.3793	8371.4
478.38327	8363.48
478.38721	8355.68
478.39117	8347.69
478.39514	8347.48
478.39911	8383.46
478.40305	8419.48
478.40701	8455.73
478.41098	8492.7
478.41495	8530.83
478.41888	8568.6
478.42285	8606.15
478.42682	8624.13
478.43076	8639.52
478.43472	8654.98
478.43869	8687.25
478.44266	8751.45
478.44659	8815.29
478.45056	8879.73
478.45453	8920.07
478.4585	8951.27
478.46243	8982.29
478.4664	9017.45
478.47037	9077.85
478.47433	9139.72
478.47827	9201.13
478.48224	9252.4
478.48621	9291.91
478.49017	9331.31
478.49411	9370.51
478.49808	9408.56
478.50204	9448.35
478.50601	9487.99
478.50995	9523.19
478.51392	9548.89
478.51788	9574.43
478.52182	9599.55
478.52579	9629.66
478.52975	9659.58
478.53372	9689.53
478.53766	9721.68
478.54163	9795.77
478.54559	9870.3
478.54956	9944.89
478.5535	10026.7
478.55746	10115
478.56143	10203.7
478.5654	10292.8
478.56934	10355.2
478.5733	10413.8
478.57727	10472.7
478.58124	10523.1
478.58517	10542
478.58914	10560.9
478.59311	10580.1
478.59708	10579
478.60101	10566.4
478.60498	10553.8
478.60895	10540.9
478.61292	10470.4
478.61685	10400.3
478.62082	10329.6
478.62479	10259.8
478.62872	10191.8
478.63269	10123
478.63666	10054.4
478.64063	10028.7
478.64456	10015.8
478.64853	10002.8
478.6525	9983.53
478.65646	9933.55
478.6604	9883.69
478.66437	9833.41
478.66833	9799.2
478.6723	9776.47
478.67624	9754.1
478.68021	9732.05
478.68417	9685.77
478.68814	9638.94
478.69208	9592.51
478.69604	9537.2
478.70001	9465.79
478.70398	9394.29
478.70792	9323.22
478.71188	9216.69
478.71585	9096.96
478.71979	8977.78
478.72375	8861.34
478.72772	8776.73
478.73169	8691.9
478.73563	8607.52
478.73959	8562.08
478.74356	8556.58
478.74753	8551.09
478.75146	8545.66
478.75543	8577.38
478.7594	8614.15
478.76337	8651.02
478.7673	8670.75
478.77127	8646.75
478.77524	8622.62
478.77921	8598.4
478.78314	8602.05
478.78711	8620
478.79108	8637.84
478.79504	8653.92
478.79898	8647.38
478.80295	8640.4
478.80692	8633.31
478.81088	8638.78
478.81482	8659.72
478.81879	8680.83
478.82275	8702.2
478.82669	8774.04
478.83066	8857.58
478.83463	8941.13
478.83859	9022.43
478.84253	9095.68
478.8465	9169.43
478.85046	9243.23
478.85443	9306.28
478.85837	9361.84
478.86234	9417.97
478.8663	9474.53
478.87027	9501.17
478.87421	9527.91
478.87817	9554.77
478.88214	9579.14
478.88611	9599.42
478.89005	9619.58
478.89401	9639.94
478.89798	9677.37
478.90195	9719.76
478.90588	9761.9
478.90985	9808.92
478.91382	9879.63
478.91776	9949.8
478.92172	10020.5
478.92569	10117.8
478.92966	10236.6
478.93359	10354.6
478.93756	10473.5
478.94153	10493.3
478.9455	10506.4
478.94943	10519.5
478.9534	10534.8
478.95737	10554.2
478.96133	10573.9
478.96527	10593.6
478.96924	10628.4
478.97321	10669.4
478.97717	10710.8
478.98111	10741.3
478.98508	10672.2
478.98904	10603.2
478.99301	10534.2
478.99695	10501.2
479.00092	10504.3
479.00488	10507.5
479.00885	10510.7
479.01279	10384.7
479.01675	10240.3
479.02072	10095.6
479.02466	9961.11
479.02863	9850.06
479.03259	9738.67
479.03656	9626.92
479.0405	9565.57
479.04446	9529.74
479.04843	9493.9
479.0524	9462.07
479.05634	9500.31
479.0603	9538.84
479.06427	9577.36
479.06824	9570.01
479.07217	9504.41
479.07614	9438.3
479.08011	9372.19
479.08408	9321.16
479.08801	9273.58
479.09198	9225.63
479.09595	9176.18
479.09991	9121.3
479.10385	9066.84
479.10782	9011.95
479.11179	8928.17
479.11572	8825.9
479.11969	8722.85
479.12366	8619.79
479.12762	8594.52
479.13156	8570.04
479.13553	8545.37
479.1395	8526.23
479.14346	8516.23
479.1474	8506.31
479.15137	8496.31
479.15533	8480.99
479.1593	8464.08
479.16324	8447.31
479.16721	8438.17
479.17117	8471.78
479.17514	8505.39
479.17908	8538.75
479.18304	8547.94
479.18701	8536.86
479.19098	8525.77
479.19492	8514.77
479.19888	8549.16
479.20285	8586.94
479.20682	8624.72
479.21075	8657.07
479.21472	8678.97
479.21869	8700.87
479.22263	8722.6
479.22659	8804.68
479.23056	8911.63
479.23453	9018.57
479.23846	9125.48
479.24243	9240.23
479.2464	9354.99
479.25037	9469.74
479.2543	9560.04
479.25827	9626.15
479.26224	9692.26
479.2662	9758.37
479.27014	9840.38
479.27411	9925.2
479.27808	10010
479.28204	10090.2
479.28598	10157.2
479.28995	10224.7
479.29391	10292.2
479.29788	10366.3
479.30182	10443.4
479.30579	10521
479.30975	10599
479.31369	10685
479.31766	10771.7
479.32162	10858.3
479.32559	10869.4
479.32953	10784.5
479.3335	10698.8
479.33746	10613.2
479.34143	10619.7
479.34537	10645.9
479.34933	10672.3
479.3533	10696
479.35727	10710.2
479.36121	10724.2
479.36517	10738.3
479.36914	10691
479.37311	10602.7
479.37704	10515
479.38101	10426.7
479.38498	10340.7
479.38895	10254.8
479.39288	10169.5
479.39685	10075.7
479.40082	9968.68
479.40479	9861.68
479.40872	9755.51
479.41269	9717.52
479.41666	9701.13
479.42059	9684.87
479.42456	9667.42
479.42853	9644.13
479.4325	9620.85
479.43643	9597.75
479.4404	9572.19
479.44437	9544.69
479.44833	9517.19
479.45227	9489.9
479.45624	9438.98
479.46021	9386.32
479.46417	9333.65
479.46811	9271.63
479.47208	9188.02
479.47604	9104.41
479.48001	9020.8
479.48395	8959.14
479.48792	8905.64
479.49188	8852.15
479.49585	8797.06
479.49979	8728.15
479.50375	8658.7
479.50772	8589.26
479.51166	8565.55
479.51563	8589.39
479.51959	8613.23
479.52356	8637.07
479.5275	8644.59
479.53146	8649.87
479.53543	8655.14
479.5394	8666.99
479.54333	8696.42
479.5473	8726.07
479.55127	8755.73
479.55524	8769.63
479.55917	8775.15
479.56314	8780.7
479.56711	8787.5
479.57108	8819.93
479.57501	8852.11
479.57898	8884.54
479.58295	8891.39
479.58691	8864.45
479.59085	8837.71
479.59482	8810.77
479.59879	8795.05
479.60275	8781.74
479.60669	8768.54
479.61066	8764.98
479.61462	8798.59
479.61856	8831.94
479.62253	8865.56
479.6265	8893.3
479.63046	8917.14
479.6344	8940.79
479.63837	8964.63
479.64233	9085.34
479.6463	9207.56
479.65024	9328.85
479.65421	9475.04
479.65817	9660.88
479.66214	9846.71
479.66608	10031.1
479.67004	10223.9
479.67401	10418.8
479.67798	10613.6
479.68192	10795.8
479.68588	10917.7
479.68985	11039.6
479.69382	11161.6
479.69775	11243.7
479.70172	11294.4
479.70569	11345.2
479.70963	11395.5
479.71359	11402.4
479.71756	11406
479.72153	11409.6
479.72546	11362.7
479.72943	11210.3
479.7334	11057.8
479.73737	10905.4
479.7413	10761.4
479.74527	10619.1
479.74924	10476.9
479.7532	10340.3
479.75714	10250.6
479.76111	10160.2
479.76508	10069.9
479.76904	9995.69
479.77298	9938.63
479.77695	9881.13
479.78091	9823.63
479.78488	9804.99
479.78882	9791.51
479.79279	9777.93
479.79675	9756.93
479.80072	9715.82
479.80466	9675.03
479.80862	9633.91
479.81259	9583.88
479.81653	9529.69
479.8205	9475.08
479.82446	9421.23
479.82843	9382.9
479.83237	9344.86
479.83633	9306.53
479.8403	9261.18
479.84427	9206.85
479.84821	9152.94
479.85217	9098.61
479.85614	9034.13
479.86011	8967.46
479.86404	8901.31
479.86801	8846.37
479.87198	8834.18
479.87595	8821.98
479.87988	8809.88
479.88385	8816.33
479.88782	8835.22
479.89178	8854.11
479.89572	8872.85
479.89969	8865.3
479.90366	8857.54
479.90759	8849.84
479.91156	8866.88
479.91553	8924.94
479.91949	8982.99
479.92343	9040.6
479.9274	9093.66
479.93137	9145.22
479.93533	9196.77
479.93927	9253.89
479.94324	9344.17
479.9472	9434.44
479.95117	9524.72
479.95511	9617.34
479.95908	9713.17
479.96304	9809.01
479.96701	9904.84
479.97095	9963.33
479.97491	10020.1
479.97888	10077
479.98285	10143
479.98679	10227.1
479.99075	10311.8
479.99472	10396.5
479.99869	10481.9
480.00262	10566.9
480.00659	10652.6
480.01056	10732.3
480.0145	10762.3
480.01846	10792.6
480.02243	10822.9
480.0264	10872.5
480.03033	10941
480.0343	11010
480.03827	11079
480.04224	11084.3
480.04617	11081.3
480.05014	11078.2
480.05411	11048.9
480.05807	10951.1
480.06201	10854
480.06598	10756.1
480.06995	10595.7
480.07391	10403.2
480.07785	10212.1
480.08182	10024.6
480.08578	9923.38
480.08975	9822.21
480.09369	9721.81
480.09766	9664.27
480.10162	9662.6
480.10556	9660.95
480.10953	9659.28
480.11349	9595.54
480.11746	9519.15
480.1214	9443.35
480.12537	9386.84
480.12933	9399.59
480.1333	9412.35
480.13724	9425
480.1412	9401.47
480.14517	9354.53
480.14914	9307.58
480.15308	9261
480.15704	9231.9
480.16101	9202.79
480.16498	9173.69
480.16891	9143.18
480.17288	9109.85
480.17685	9076.51
480.18082	9043.18
480.18475	8990.13
480.18872	8931.09
480.19269	8872.05
480.19666	8820.27
480.20059	8804.29
480.20456	8788.17
480.20853	8772.06
480.21246	8741.05
480.21643	8697.81
480.2204	8654.57
480.22437	8611.33
480.2283	8602.74
480.23227	8596.08
480.23624	8589.41
480.2402	8599.2
480.24414	8640.82
480.24811	8682.76
480.25208	8724.71
480.25604	8793.12
480.25998	8870.69
480.26395	8948.85
480.26791	9027.52
480.27188	9110.02
480.27582	9191.88
480.27979	9274.38
480.28375	9363.83
480.28772	9460.01
480.29166	9555.46
480.29562	9651.64
480.29959	9765.11
480.30353	9879.78
480.3075	9995.33
480.31146	10110.4
480.31543	10224.3
480.31937	10337.4
480.32333	10451.3
480.3273	10547.2
480.33127	10634.1
480.33521	10720.4
480.33917	10803.5
480.34314	10827.9
480.34711	10852.4
480.35104	10876.6
480.35501	10896
480.35898	10909.3
480.36295	10922.6
480.36688	10935.9
480.37085	10833.4
480.37482	10708.7
480.37878	10584
480.38272	10466.2
480.38669	10367.5
480.39066	10268.9
480.39462	10170.2
480.39856	10056.8
480.40253	9932.87
480.40649	9808.98
480.41043	9685.84
480.4144	9534.73
480.41837	9383.62
480.42233	9232.5
480.42627	9148.21
480.43024	9161.24
480.4342	9174.27
480.43817	9187.29
480.44211	9208.09
480.44608	9231.15
480.45004	9254.2
480.45401	9277.09
480.45795	9299.1
480.46191	9321.27
480.46588	9343.45
480.46985	9361.22
480.47379	9375.56
480.47775	9390
480.48172	9404.44
480.48569	9410.6
480.48962	9416.37
480.49359	9422.19
480.49756	9406
480.5015	9348.67
480.50546	9290.89
480.50943	9233.11
480.5134	9160.97
480.51733	9084.35
480.5213	9007.12
480.52527	8935.65
480.52924	8902.39
480.53317	8869.38
480.53714	8836.12
480.54111	8806.11
480.54507	8779.17
480.54901	8752.43
480.55298	8725.49
480.55695	8738.35
480.56091	8755.26
480.56485	8772.03
480.56882	8797.88
480.57278	8845.38
480.57675	8892.88
480.58069	8940.02
480.58466	8999.69
480.58862	9064.97
480.59259	9130.25
480.59653	9203.26
480.60049	9375.67
480.60446	9548.08
480.6084	9719.16
480.61237	9897.13
480.61633	10081.6
480.6203	10266
480.62424	10449
480.6282	10558.8
480.63217	10655.9
480.63614	10752.9
480.64008	10842.7
480.64404	10912.7
480.64801	10982.7
480.65198	11052.7
480.65591	11116.7
480.65988	11178.1
480.66385	11239.5
480.66782	11297.2
480.67175	11240.3
480.67572	11182.9
480.67969	11125.5
480.68365	11043.4
480.68759	10927.4
480.69156	10810.4
480.69553	10693.5
480.69946	10561.9
480.70343	10425.5
480.7074	10289.1
480.71136	10158.7
480.7153	10054
480.71927	9948.4
480.72324	9842.85
480.7272	9776.1
480.73114	9737.24
480.73511	9698.07
480.73907	9658.9
480.74304	9628.48
480.74698	9598.5
480.75095	9568.29
480.75491	9562.06
480.75888	9598.17
480.76282	9634
480.76678	9670.11
480.77075	9701.78
480.77472	9731.99
480.77866	9761.97
480.78262	9777.35
480.78659	9700.4
480.79056	9623.46
480.79449	9547.1
480.79846	9487.41
480.80243	9442.97
480.80637	9398.86
480.81033	9354.42
480.8143	9338.21
480.81827	9324.35
480.8222	9310.59
480.82617	9274.59
480.83014	9188.76
480.83411	9102.92
480.83804	9017.75
480.84201	8976.25
480.84598	8953.75
480.84995	8931.25
480.85388	8911.43
480.85785	8916.15
480.86182	8920.86
480.86578	8925.57
480.86972	8987.35
480.87369	9111.79
480.87766	9236.24
480.88162	9360.68
480.88556	9455.27
480.88953	9546.46
480.89349	9637.66
480.89743	9742.87
480.9014	9892.03
480.90536	10041.2
480.90933	10190.4
480.91327	10393.3
480.91724	10627.5
480.9212	10861.6
480.92517	11090.8
480.92911	11215.1
480.93307	11340.4
480.93704	11465.7
480.94101	11547.6
480.94495	11572.2
480.94891	11596.9
480.95288	11621.6
480.95685	11591.2
480.96078	11549.4
480.96475	11507.1
480.96872	11452.1
480.97269	11350.4
480.97662	11249.4
480.98059	11147.7
480.98456	10979.7
480.98853	10767.4
480.99246	10556.9
480.99643	10344.6
481.0004	10154.9
481.00433	9966.73
481.0083	9777.13
481.01227	9610.52
481.01624	9481.91
481.02017	9354.29
481.02414	9225.68
481.02811	9183.82
481.03207	9167.99
481.03601	9152.28
481.03998	9148.99
481.04395	9210.8
481.04791	9272.61
481.05185	9333.95
481.05582	9365.94
481.05978	9373.17
481.06375	9380.39
481.06769	9387.56
481.07166	9374.97
481.07562	9361.08
481.07959	9347.19
481.08353	9338.18
481.08749	9338.74
481.09146	9339.29
481.0954	9339.84
481.09937	9381.53
481.10333	9439.59
481.1073	9497.64
481.11124	9541.97
481.1152	9476.69
481.11917	9411.41
481.12314	9346.14
481.12708	9304.02
481.13104	9284.06
481.13501	9264.11
481.13898	9244.15
481.14291	9262.89
481.14688	9286.5
481.15085	9310.11
481.15482	9344.63
481.15875	9406.1
481.16272	9468.04
481.16669	9529.99
481.17065	9661.08
481.17459	9823.91
481.17856	9988
481.18253	10155.7
481.18649	10378.5
481.19043	10599.6
481.1944	10822.3
481.19836	11021.5
481.2023	11190.9
481.20627	11361.7
481.21024	11532.4
481.2142	11609.6
481.21814	11668.3
481.22211	11727.5
481.22607	11770.6
481.23004	11760.4
481.23398	11750.2
481.23795	11739.9
481.24191	11677.3
481.24588	11583
481.24982	11489.5
481.25378	11394.6
481.25775	11215.7
481.26172	11036.8
481.26566	10859.3
481.26962	10648.7
481.27359	10390.3
481.27756	10132
481.28149	9875.65
481.28546	9692.21
481.28943	9528.39
481.29337	9365.83
481.29733	9219.99
481.3013	9157.77
481.30527	9095.55
481.3092	9033.8
481.31317	9008.42
481.31714	9010.92
481.32111	9013.42
481.32504	9015.9
481.32901	9104.75
481.33298	9197.06
481.33694	9289.36
481.34088	9357.56
481.34485	9382.28
481.34882	9407
481.35278	9431.72
481.35672	9439.23
481.36069	9440.9
481.36465	9442.56
481.36862	9439.24
481.37256	9405.13
481.37653	9370.76
481.38049	9336.39
481.38446	9321.16
481.3884	9323.37
481.39236	9325.59
481.39633	9327.81
481.40027	9341.11
481.40424	9355.56
481.4082	9370
481.41217	9376.16
481.41611	9363.78
481.42007	9351.31
481.42404	9338.84
481.42801	9403.46
481.43195	9501.59
481.43591	9600.48
481.43988	9705.22
481.44385	9873.28
481.44778	10040
481.45175	10208.1
481.45572	10364.7
481.45969	10508.9
481.46362	10651.9
481.46759	10796
481.47156	10944
481.47552	11092.6
481.47946	11240.1
481.48343	11362.9
481.4874	11409.9
481.49133	11456.4
481.4953	11503.4
481.49927	11466.3
481.50323	11383.1
481.50717	11300.6
481.51114	11214.7
481.51511	11041.9
481.51907	10869.1
481.52301	10697.7
481.52698	10536.5
481.53094	10391.3
481.53491	10246
481.53885	10101.8
481.54282	9917.13
481.54678	9723.52
481.55075	9529.91
481.55469	9360.27
481.55865	9274.9
481.56262	9189.52
481.56659	9104.15
481.57053	9057.5
481.57449	9036.38
481.57846	9015.27
481.58243	8994.16
481.58636	8977.86
481.59033	8961.47
481.5943	8945.09
481.59824	8961.75
481.6022	9032.71
481.60617	9103.67
481.61014	9174.63
481.61407	9185.5
481.61804	9178.28
481.62201	9171.06
481.62598	9169.89
481.62991	9199.94
481.63388	9230.21
481.63785	9260.49
481.64182	9296.26
481.64575	9336.14
481.64972	9376.33
481.65369	9416.53
481.65765	9417.44
481.66159	9415.78
481.66556	9414.12
481.66953	9443.04
481.67349	9533.88
481.67743	9624.01
481.6814	9714.85
481.68536	9847.43
481.6893	9994.86
481.69327	10143.4
481.69724	10294.5
481.7012	10465.8
481.70514	10635.9
481.70911	10807.3
481.71307	10964.3
481.71704	11106.8
481.72098	11248.2
481.72495	11390.7
481.72891	11498.9
481.73288	11603.1
481.73682	11706.5
481.74078	11743.2
481.74475	11610.4
481.74872	11477.7
481.75266	11345.9
481.75662	11191.8
481.76059	11027
481.76456	10862.3
481.76849	10699
481.77246	10537.1
481.77643	10375.1
481.7804	10213.2
481.78433	10050.1
481.7883	9883
481.79227	9715.86
481.7962	9550
481.80017	9418.19
481.80414	9293.19
481.80811	9168.19
481.81204	9054.86
481.81601	8976.25
481.81998	8897.64
481.82394	8819.03
481.82788	8804.71
481.83185	8828.32
481.83582	8851.93
481.83978	8876.26
481.84372	8930.45
481.84769	8985.05
481.85165	9039.66
481.85562	9091.48
481.85956	9138.89
481.86353	9186.67
481.86749	9234.44
481.87146	9244.22
481.8754	9244.5
481.87936	9244.78
481.88333	9266.43
481.88727	9377
481.89124	9488.43
481.8952	9599.86
481.89917	9691.39
481.90311	9767.74
481.90707	9844.69
481.91104	9921.63
481.91501	10053.2
481.91895	10185.5
481.92291	10318.9
481.92688	10445
481.93085	10558.3
481.93478	10670.8
481.93875	10784.1
481.94272	10922.5
481.94669	11069.2
481.95062	11214.7
481.95459	11350.5
481.95856	11419.1
481.96252	11487.7
481.96646	11555.8
481.97043	11543.2
481.9744	11458.7
481.97836	11374.3
481.9823	11290.5
481.98627	11155.6
481.99023	11016.4
481.99417	10878.3
481.99814	10733
482.00211	10573.9
482.00607	10414.7
482.01001	10256.8
482.01398	10084.2
482.01794	9905.83
482.02191	9727.5
482.02585	9553.92
482.02982	9412.26
482.03378	9270.59
482.03775	9128.92
482.04169	9043.03
482.04565	9014.2
482.04962	8985.38
482.05359	8956.55
482.05753	8957.1
482.06149	8961.83
482.06546	8966.55
482.06943	8976.66
482.07336	9001.19
482.07733	9025.91
482.0813	9050.63
482.08524	9134.92
482.0892	9251.03
482.09317	9367.14
482.09714	9481.15
482.10107	9557.61
482.10504	9634.67
482.10901	9711.73
482.11298	9807.62
482.11691	9926.69
482.12088	10046.7
482.12485	10166.7
482.12881	10318.1
482.13275	10474.6
482.13672	10632.4
482.14069	10774.1
482.14465	10860
482.14859	10945.2
482.15256	11031
482.15652	11094.4
482.16049	11143.7
482.16443	11192.7
482.1684	11242
482.17236	11226.7
482.17633	11211.4
482.18027	11196.3
482.18423	11171.3
482.1882	11131.3
482.19214	11091.6
482.19611	11051.6
482.20007	10952.3
482.20404	10836.8
482.20798	10722.1
482.21194	10600.8
482.21591	10452.5
482.21988	10304.2
482.22382	10157
482.22778	10014.8
482.23175	9877.29
482.23572	9739.79
482.23965	9603.35
482.24362	9467.44
482.24759	9331.6
482.25156	9195.77
482.25549	9108
482.25946	9108
482.26343	9108
482.2674	9108
482.27133	9113.73
482.2753	9121.49
482.27927	9129.25
482.2832	9150.94
482.28717	9272.33
482.29114	9393.72
482.2951	9515.11
482.29904	9615.95
482.30301	9699.28
482.30698	9782.62
482.31094	9865.95
482.31488	10045.7
482.31885	10236
482.32281	10426.3
482.32678	10576
482.33072	10634
482.33469	10692.5
482.33865	10751
482.34262	10815.7
482.34656	10882.7
482.35052	10950.2
482.35449	11014.7
482.35846	11046.6
482.3624	11078.3
482.36636	11110.3
482.37033	11116.7
482.3743	11095
482.37823	11073.5
482.3822	11051.8
482.38617	10964.9
482.39011	10868.9
482.39407	10772.2
482.39804	10670
482.40201	10551.6
482.40594	10434.2
482.40991	10315.9
482.41388	10203.3
482.41785	10093.8
482.42178	9985.24
482.42575	9877.66
482.42972	9816.83
482.43369	9755.99
482.43762	9695.63
482.44159	9640.46
482.44556	9592.79
482.44952	9545.11
482.45346	9497.8
482.45743	9472.92
482.4614	9453.2
482.46536	9433.47
482.4693	9430
482.47327	9487.78
482.47723	9545.56
482.48117	9602.89
482.48514	9676.33
482.48911	9760.22
482.49307	9844.11
482.49701	9927.35
482.50098	10047.1
482.50494	10167.1
482.50891	10287.1
482.51285	10387.1
482.51682	10457.5
482.52078	10527.9
482.52475	10598.3
482.52869	10655
482.53265	10708.4
482.53662	10761.7
482.54059	10811.5
482.54453	10843.4
482.54849	10875.6
482.55246	10907.9
482.55643	10860.7
482.56036	10752.4
482.56433	10643.2
482.5683	10534
482.57227	10436.2
482.5762	10339.7
482.58017	10242.4
482.58414	10159.3
482.58807	10104.4
482.59204	10049.2
482.59601	9993.88
482.59998	9940.43
482.60391	9888.06
482.60788	9835.28
482.61185	9779.22
482.61581	9699.78
482.61975	9620.94
482.62372	9541.5
482.62769	9487.97
482.63165	9458.8
482.63559	9429.86
482.63956	9400.69
482.64352	9493.86
482.64749	9599.47
482.65143	9704.26
482.6554	9805.96
482.65936	9898.18
482.66333	9990.4
482.66727	10081.9
482.67123	10149.8
482.6752	10206.5
482.67914	10262.7
482.68311	10321.8
482.68707	10410.7
482.69104	10499.6
482.69498	10587.8
482.69894	10648.8
482.70291	10678.3
482.70688	10707.7
482.71082	10736.9
482.71478	10726.7
482.71875	10710
482.72272	10693.4
482.72665	10674.6
482.73062	10648.5
482.73459	10622.4
482.73856	10596.2
482.74249	10529.9
482.74646	10440.4
482.75043	10351
482.75439	10263.1
482.75833	10213.2
482.7623	10162.9
482.76627	10112.6
482.77023	10078.4
482.77417	10065.4
482.77814	10052.4
482.7821	10039.3
482.78604	9978.24
482.79001	9906.17
482.79398	9834.1
482.79794	9794.08
482.80188	9875.67
482.80585	9957.89
482.80981	10040.1
482.81378	10053.8
482.81772	10022.1
482.82169	9990.19
482.82565	9958.25
482.82962	9969.85
482.83356	9981.71
482.83752	9993.65
482.84149	10005.8
482.84546	10018.3
482.8494	10030.7
482.85336	10043.2
482.85733	10048.6
482.8613	10051.9
482.86523	10055.2
482.8692	10062.1
482.87317	10087.7
482.87711	10113
482.88107	10138.6
482.88504	10149.2
482.88901	10147.8
482.89294	10146.5
482.89691	10145.1
482.90088	10095.6
482.90485	10043.4
482.90878	9991.55
482.91275	9972.61
482.91672	10018.7
482.92068	10064.8
482.92462	10110.6
482.92859	10118.9
482.93256	10113.4
482.93652	10107.9
482.94046	10101.8
482.94443	10091.8
482.94839	10081.8
482.95236	10071.8
482.9563	10044.2
482.96027	9999.15
482.96423	9954.15
482.9682	9909.15
482.97214	9890.5
482.9761	9874.39
482.98007	9858.28
482.98401	9838.47
482.98798	9809.31
482.99194	9780.14
482.99591	9750.97
482.99985	9780.03
483.00381	9835.59
483.00778	9891.15
483.01175	9944.51
483.01569	9973.94
483.01965	10003.6
483.02362	10033.3
483.02759	10076.8
483.03152	10135.5
483.03549	10194.6
483.03946	10253.8
483.04343	10295
483.04736	10333.1
483.05133	10371.4
483.0553	10391
483.05927	10355.8
483.0632	10320.8
483.06717	10285.5
483.07114	10197.1
483.07507	10080.5
483.07904	9962.98
483.08301	9851.5
483.08698	9890.59
483.09091	9929.37
483.09488	9968.45
483.09885	9968.44
483.10281	9915.1
483.10675	9862.18
483.11072	9808.85
483.11469	9824.59
483.11865	9855.98
483.12259	9887.13
483.12656	9923.6
483.13052	9979.43
483.13449	10035.3
483.13843	10090.7
483.1424	10157.7
483.14636	10232.1
483.15033	10306.6
483.15427	10380.4
483.15823	10354.8
483.1622	10328.4
483.16617	10302
483.1701	10271.3
483.17407	10232.9
483.17804	10194.6
483.18198	10156.6
483.18594	10142
483.18991	10134.2
483.19388	10126.4
483.19781	10113.7
483.20178	10074.5
483.20575	10035.3
483.20972	9996.17
483.21365	9973.62
483.21762	9963.89
483.22159	9954.17
483.22556	9944.45
483.22949	9928.23
483.23346	9911.56
483.23743	9894.9
483.24139	9926.12
483.24533	10046.8
483.2493	10168.5
483.25327	10290.2
483.25723	10319.3
483.26117	10315.8
483.26514	10312.1
483.2691	10315.9
483.27304	10368.1
483.27701	10420.8
483.28098	10473.5
483.28494	10492.6
483.28888	10480.2
483.29285	10467.7
483.29681	10455.2
483.30078	10435.1
483.30472	10414.4
483.30869	10393.6
483.31265	10364.1
483.31662	10314.4
483.32056	10265
483.32452	10215.3
483.32849	10159.4
483.33246	10100.8
483.3364	10042.7
483.34036	9989.54
483.34433	9995.93
483.3483	10002.3
483.35223	10008.7
483.3562	10001.4
483.36017	9979.18
483.36414	9956.96
483.36807	9934.91
483.37204	9888.63
483.37601	9838.74
483.37994	9789.23
483.38391	9749.6
483.38788	9740.16
483.39185	9730.71
483.39578	9721.34
483.39975	9719.62
483.40372	9722.12
483.40768	9724.62
483.41162	9727.79
483.41559	9748.35
483.41956	9768.9
483.42352	9789.46
483.42746	9833.31
483.43143	9908.31
483.43539	9983.31
483.43936	10058.3
483.4433	10107.4
483.44727	10151.5
483.45123	10195.7
483.4552	10230.9
483.45914	10234.7
483.4631	10238.6
483.46707	10242.5
483.47101	10248.4
483.47498	10255.6
483.47894	10262.8
483.48291	10270
483.48685	10322.6
483.49081	10375.7
483.49478	10428.8
483.49875	10448.3
483.50269	10416
483.50665	10383.5
483.51062	10351
483.51459	10282.5
483.51852	10204.8
483.52249	10126.5
483.52646	10049.1
483.53043	9976.35
483.53436	9904.13
483.53833	9831.35
483.5423	9710.5
483.54626	9553.28
483.5502	9397.27
483.55417	9240.05
483.55814	9125.83
483.5621	9013.33
483.56604	8901.69
483.57001	8799.71
483.57397	8716.93
483.57791	8634.79
483.58188	8552.01
483.58585	8485.5
483.58981	8424.52
483.59375	8364.01
483.59772	8306.1
483.60168	8268.6
483.60565	8231.1
483.60959	8193.88
483.61356	8163.79
483.61752	8140.46
483.62149	8117.13
483.62543	8093.97
483.62939	8122
483.63336	8154.78
483.63733	8187.56
483.64127	8206.41
483.64523	8194.74
483.6492	8183.08
483.65317	8171.41
483.6571	8161.39
483.66107	8151.94
483.66504	8142.5
483.66898	8133.59
483.67294	8129.15
483.67691	8124.7
483.68088	8120.26
483.68481	8106.02
483.68878	8081.3
483.69275	8056.57
483.69672	8031.85
483.70065	8037.04
483.70462	8046.21
483.70859	8055.37
483.71255	8057.09
483.71649	8039.48
483.72046	8021.74
483.72443	8004
483.72839	7982.75
483.73233	7959.87
483.7363	7936.81
483.74026	7915.52
483.74423	7925.25
483.74817	7934.89
483.75214	7944.62
483.7561	7949.88
483.76007	7949.6
483.76401	7949.32
483.76797	7949.04
483.77194	7984.4
483.77588	8026.3
483.77985	8068.52
483.78381	8110.55
483.78778	8151.94
483.79172	8193.01
483.79568	8234.4
483.79965	8264.02
483.80362	8286.52
483.80756	8308.85
483.81152	8330.68
483.81549	8310.13
483.81946	8289.57
483.82339	8269.17
483.82736	8250.32
483.83133	8233.93
483.8353	8217.54
483.83923	8201.28
483.8432	8187.11
483.84717	8173.5
483.85114	8159.89
483.85507	8147.19
483.85904	8137.76
483.86301	8128.34
483.86694	8118.99
483.87091	8120.61
483.87488	8130.33
483.87885	8140.05
483.88278	8149.7
483.88675	8106.92
483.89072	8062.48
483.89468	8018.03
483.89862	7983.57
483.90259	7965.79
483.90656	7948.02
483.91052	7930.24
483.91446	7935
483.91843	7946.95
483.92239	7958.89
483.92636	7973.87
483.9303	8005.29
483.93427	8036.96
483.93823	8068.63
483.9422	8070.56
483.94614	8047.96
483.9501	8025.18
483.95407	8002.4
483.95804	8013.51
483.96198	8026.74
483.96594	8040.08
483.96991	8053.41
483.97385	8066.64
483.97781	8079.97
483.98178	8093.31
483.98575	8089.37
483.98969	8078.89
483.99365	8068.34
483.99762	8058.01
484.00159	8049.4
484.00552	8040.85
484.00949	8032.24
484.01346	8044.08
484.01743	8075.74
484.02136	8107.17
484.02533	8138.83
484.0293	8138.26
484.03326	8134.1
484.0372	8129.97
484.04117	8127.87
484.04514	8130.93
484.0491	8133.98
484.05304	8137.01
484.05701	8106.22
484.06097	8059.28
484.06491	8012.69
484.06888	7969.79
484.07285	7981.18
484.07681	7992.57
484.08075	8003.87
484.08472	8015.64
484.08868	8027.86
484.09265	8040.09
484.09659	8052.21
484.10056	8051.15
484.10452	8047.82
484.10849	8044.49
484.11243	8041.11
484.11639	8037.5
484.12036	8033.89
484.12433	8030.28
484.12827	8020.66
484.13223	8007.61
484.1362	7994.55
484.14017	7981.84
484.1441	7977.71
484.14807	7973.54
484.15204	7969.37
484.15601	7974.78
484.15994	7992.69
484.16391	8010.75
484.16788	8028.81
484.17181	8030.19
484.17578	8027.97
484.17975	8025.74
484.18372	8029.03
484.18765	8052.18
484.19162	8075.51
484.19559	8098.85
484.19955	8104.12
484.20349	8097.78
484.20746	8091.39
484.21143	8085
484.21539	8054.72
484.21933	8024.68
484.2233	7994.4
484.22726	7973.17
484.23123	7965.94
484.23517	7958.78
484.23914	7951.56
484.2431	7970.23
484.24707	7996
484.25101	8021.58
484.25497	8038.35
484.25894	8010.85
484.26288	7983.56
484.26685	7956.06
484.27081	7949.46
484.27478	7959.18
484.27872	7968.83
484.28268	7978.55
484.28665	8022.72
484.29062	8068.55
484.29456	8114.03
484.29852	8150.73
484.30249	8170.18
484.30646	8189.62
484.31039	8208.91
484.31436	8217.28
484.31833	8221.73
484.3223	8226.17
484.32623	8222.55
484.3302	8165.61
484.33417	8108.66
484.33813	8051.72
484.34207	8021.51
484.34604	8014.85
484.35001	8008.18
484.35397	8001.51
484.35791	8027.19
484.36188	8055.8
484.36584	8084.41
484.36978	8103.23
484.37375	8100.73
484.37772	8098.23
484.38168	8095.73
484.38562	8093.25
484.38959	8090.75
484.39355	8088.25
484.39752	8086.33
484.40146	8089.64
484.40543	8092.97
484.40939	8096.31
484.41336	8082
484.4173	8049.75
484.42126	8017.25
484.42523	7984.75
484.4292	7964.78
484.43314	7946.59
484.4371	7928.26
484.44107	7907.77
484.44504	7881.66
484.44897	7855.75
484.45294	7829.64
484.45691	7835.31
484.46085	7856.54
484.46481	7877.93
484.46878	7900.92
484.47275	7948.42
484.47668	7995.56
484.48065	8043.06
484.48462	8075.05
484.48859	8088.38
484.49252	8101.62
484.49649	8114.95
484.50046	8107.36
484.50443	8095.97
484.50836	8084.67
484.51233	8076.13
484.5163	8076.69
484.52026	8077.24
484.5242	8077.79
484.52817	8071.69
484.53214	8061.69
484.5361	8051.69
484.54004	8041.68
484.54401	8027.79
484.54797	8013.9
484.55194	8000.01
484.55588	7987.15
484.55984	7975.49
484.56381	7963.82
484.56775	7952.24
484.57172	7937.44
484.57568	7921.88
484.57965	7906.32
484.58359	7894.89
484.58755	7899.33
484.59152	7903.78
484.59549	7908.22
484.59943	7923.98
484.60339	7947.6
484.60736	7971.21
484.61133	7994.82
484.61526	7991.72
484.61923	7988.38
484.6232	7985.05
484.62717	7989.2
484.6311	8005.18
484.63507	8021.29
484.63904	8037.41
484.64301	8053.73
484.64694	8070
484.65091	8086.38
484.65488	8098.31
484.65881	8088.38
484.66278	8078.38
484.66675	8068.38
484.67072	8050.9
484.67465	8027.74
484.67862	8004.41
484.68259	7981.08
484.68655	7965.43
484.69049	7950.27
484.69446	7934.99
484.69843	7931.43
484.70239	7950
484.70633	7968.43
484.7103	7987
484.71426	7990.17
484.71823	7987.67
484.72217	7985.19
484.72614	7985.26
484.7301	8003.59
484.73407	8021.92
484.73801	8040.12
484.74197	8071.19
484.74594	8114.25
484.74991	8157.3
484.75385	8200.03
484.75781	8212.83
484.76178	8222.55
484.76572	8232.19
484.76968	8231.58
484.77365	8206.86
484.77762	8182.14
484.78156	8157.61
484.78552	8144.23
484.78949	8135.9
484.79346	8127.56
484.79739	8119.44
484.80136	8112.77
484.80533	8106.1
484.8093	8099.44
484.81323	8099.84
484.8172	8107.9
484.82117	8115.95
484.82513	8124.01
484.82907	8112.2
484.83304	8097.48
484.83701	8082.76
484.84097	8065.12
484.84491	8039.76
484.84888	8014.21
484.85284	7988.65
484.85678	7987.81
484.86075	7999.75
484.86472	8011.7
484.86868	8025.41
484.87262	8069.89
484.87659	8114.7
484.88055	8159.52
484.88452	8171.77
484.88846	8145.03
484.89243	8118.09
484.89639	8091.15
484.90036	8107.21
484.9043	8130.92
484.90826	8154.81
484.91223	8187.57
484.9162	8248.68
484.92014	8309.33
484.9241	8370.44
484.92807	8386.87
484.93204	8377.15
484.93597	8367.5
484.93994	8357.9
484.94391	8353.74
484.94788	8349.57
484.95181	8345.44
484.95578	8343
484.95975	8343
484.96368	8343
484.96765	8343
484.97162	8284.89
484.97559	8212.95
484.97952	8141.56
484.98349	8088.94
484.98746	8113.67
484.99142	8138.39
484.99536	8162.92
484.99933	8160.33
485.0033	8138.94
485.00726	8117.55
485.0112	8096.33
485.01517	8070.02
485.01913	8043.63
485.0231	8017.24
485.02704	8000.79
485.03101	8000.23
485.03497	7999.68
485.03894	7999.12
485.04288	7972.5
485.04684	7938.06
485.05081	7903.62
485.05475	7876.48
485.05872	7885.65
485.06268	7894.81
485.06665	7903.98
485.07059	7910.31
485.07455	7914.47
485.07852	7918.64
485.08249	7922.81
485.08643	7940.87
485.09039	7959.76
485.09436	7978.65
485.09833	7985.81
485.10226	7970.92
485.10623	7955.92
485.1102	7940.92
485.11417	7927.15
485.1181	7913.92
485.12207	7900.59
485.12604	7894.23
485.13	7934.23
485.13394	7973.92
485.13791	8013.92
485.14188	8006.85
485.14584	7956.85
485.14978	7907.23
485.15375	7857.23
485.15771	7862.66
485.16165	7873.14
485.16562	7883.69
485.16959	7895.53
485.17355	7910.25
485.17749	7924.86
485.18146	7939.58
485.18542	7944
485.18939	7944
485.19333	7944
485.1973	7947.51
485.20126	7985.57
485.20523	8023.62
485.20917	8061.39
485.21313	8076.15
485.2171	8066.15
485.22107	8056.15
485.22501	8046.23
485.22897	8031.12
485.23294	8015.28
485.23691	7999.45
485.24084	7989.94
485.24481	7997.17
485.24878	8004.39
485.25272	8011.56
485.25668	8022.27
485.26065	8034.77
485.26462	8047.27
485.26855	8059.46
485.27252	8068.07
485.27649	8076.69
485.28046	8085.3
485.28439	8094.34
485.28836	8104.06
485.29233	8113.78
485.2963	8123.5
485.30023	8133.38
485.3042	8143.38
485.30817	8153.38
485.31213	8155.57
485.31607	8132.97
485.32004	8110.19
485.32401	8087.41
485.32797	8086.73
485.33191	8098.88
485.33588	8111.13
485.33984	8123.12
485.34381	8127.01
485.34775	8130.87
485.35172	8134.76
485.35568	8161.21
485.35962	8217.99
485.36359	8275.21
485.36755	8332.44
485.37152	8315.59
485.37546	8282.24
485.37943	8248.63
485.38339	8213.87
485.38736	8174.7
485.3913	8135.83
485.39526	8096.67
485.39923	8101.83
485.4032	8136.56
485.40714	8171.01
485.4111	8205.73
485.41507	8240.18
485.41904	8274.62
485.42297	8308.8
485.42694	8323.59
485.43091	8306.92
485.43488	8290.26
485.43881	8273.72
485.44278	8261.15
485.44675	8249.76
485.45068	8238.46
485.45465	8232.06
485.45862	8250.11
485.46259	8268.17
485.46652	8286.08
485.47049	8297.74
485.47446	8304.41
485.47842	8311.08
485.48236	8317.69
485.48633	8319.06
485.4903	8320.17
485.49426	8321.28
485.4982	8312.19
485.50217	8283.86
485.50613	8255.53
485.5101	8227.19
485.51404	8194.97
485.51801	8161.09
485.52197	8127.2
485.52594	8106.65
485.52988	8168.67
485.53384	8231.17
485.53781	8293.67
485.54178	8348.27
485.54572	8395.5
485.54968	8443.1
485.55365	8490.7
485.55759	8508.62
485.56155	8524.45
485.56552	8540.28
485.56949	8550.64
485.57343	8549.54
485.57739	8548.43
485.58136	8547.32
485.58533	8585.75
485.58926	8639.5
485.59323	8693.67
485.5972	8743.59
485.60117	8758.31
485.6051	8772.92
485.60907	8787.64
485.61304	8799.58
485.617	8808.75
485.62094	8817.85
485.62491	8827.01
485.62888	8867.16
485.63284	8911.05
485.63678	8954.6
485.64075	8982.44
485.64471	8969.94
485.64865	8957.54
485.65262	8945.04
485.65659	8928.4
485.66055	8909.79
485.66449	8891.32
485.66846	8873.54
485.67242	8866.87
485.67639	8860.21
485.68033	8853.59
485.6843	8828.46
485.68826	8781.79
485.69223	8735.13
485.69617	8688.82
485.70013	8644.76
485.7041	8601.15
485.70807	8557.54
485.71201	8522.19
485.71597	8510.78
485.71994	8499.36
485.72391	8487.95
485.72784	8499.62
485.73181	8523.78
485.73578	8547.95
485.73975	8572.67
485.74368	8608.5
485.74765	8644.61
485.75162	8680.72
485.75555	8691.07
485.75952	8668.01
485.76349	8644.96
485.76746	8621.9
485.77139	8595.14
485.77536	8567.36
485.77933	8539.58
485.78329	8516.76
485.78723	8511.25
485.7912	8505.69
485.79517	8500.14
485.79913	8515.26
485.80307	8543.1
485.80704	8571.16
485.811	8598.81
485.81497	8573.53
485.81891	8548.44
485.82288	8523.17
485.82684	8511.33
485.83081	8519.67
485.83475	8527.94
485.83871	8536.27
485.84268	8562.65
485.84662	8593.52
485.85059	8624.63
485.85455	8653.85
485.85852	8674.73
485.86246	8695.45
485.86642	8716.33
485.87039	8732.96
485.87436	8746.57
485.8783	8760.08
485.88226	8773.69
485.88623	8786.75
485.8902	8799.81
485.89413	8812.76
485.8981	8826.64
485.90207	8841.92
485.90604	8857.2
485.90997	8872.36
485.91394	8929.73
485.91791	9000.29
485.92188	9070.84
485.92581	9128.46
485.92978	9118.46
485.93375	9108.46
485.93771	9098.46
485.94165	9108.72
485.94562	9135.66
485.94958	9162.6
485.95352	9189.34
485.95749	9269.21
485.96146	9352.54
485.96542	9435.87
485.96936	9513.14
485.97333	9580.09
485.97729	9647.03
485.98126	9713.98
485.9852	9775.88
485.98917	9836.57
485.99313	9897.25
485.9971	9965.66
486.00104	10084.5
486.005	10204.2
486.00897	10323.9
486.01294	10478.1
486.01688	10662.2
486.02084	10847.7
486.02481	11033.3
486.02878	11184.3
486.03271	11330.9
486.03668	11478.7
486.04065	11669.9
486.04459	11956.6
486.04855	12245.4
486.05252	12534.3
486.05649	12851.2
486.06042	13177.6
486.06439	13506.5
486.06836	13847.4
486.07233	14307.2
486.07626	14763.3
486.08023	15223.1
486.0842	15641.9
486.08817	16017.1
486.0921	16389.5
486.09607	16764.8
486.10004	17170.8
486.104	17581.1
486.10794	17988.3
486.11191	18334.1
486.11588	18511.3
486.11984	18688.5
486.12378	18864.4
486.12775	18938.2
486.13171	18961
486.13568	18983.8
486.13962	18990.3
486.14359	18751.1
486.14755	18511.9
486.15149	18274.6
486.15546	17982.9
486.15942	17627.9
486.16339	17272.9
486.16733	16920.6
486.1713	16432.1
486.17526	15919.3
486.17923	15406.6
486.18317	14902.7
486.18713	14410.7
486.1911	13918.8
486.19507	13426.9
486.19901	13037.6
486.20297	12702.4
486.20694	12367.3
486.21091	12032.9
486.21484	11720.6
486.21881	11405.9
486.22278	11091.1
486.22675	10833.4
486.23068	10652.3
486.23465	10469.8
486.23862	10287.3
486.24255	10176.2
486.24652	10079.5
486.25049	9982.85
486.25446	9892.04
486.25839	9823.13
486.26236	9753.69
486.26633	9684.24
486.27029	9621.72
486.27423	9564.11
486.2782	9506.06
486.28217	9448
486.28613	9349.39
486.29007	9251.54
486.29404	9152.92
486.298	9074.11
486.30197	9025.95
486.30591	8978.16
486.30988	8930
486.31384	8899.75
486.31781	8874.2
486.32175	8848.84
486.32571	8829.49
486.32968	8837.54
486.33365	8845.6
486.33759	8853.59
486.34155	8836.97
486.34552	8802.25
486.34946	8767.79
486.35342	8733.07
486.35739	8737.38
486.36136	8742.94
486.3653	8748.45
486.36926	8747.88
486.37323	8736.49
486.3772	8725.1
486.38113	8713.8
486.3851	8696.52
486.38907	8677.31
486.39304	8658.1
486.39697	8646.44
486.40094	8675.33
486.40491	8704.22
486.40887	8733.11
486.41281	8743.42
486.41678	8738.7
486.42075	8733.98
486.42471	8729.25
486.42865	8682.34
486.43262	8632.62
486.43658	8582.89
486.44052	8548.62
486.44449	8544.46
486.44846	8540.29
486.45242	8536.12
486.45636	8500.85
486.46033	8453.63
486.46429	8406.41
486.46826	8365.75
486.4722	8371.83
486.47617	8377.96
486.48013	8384.08
486.4841	8390.63
486.48804	8397.52
486.492	8404.47
486.49597	8411.41
486.49994	8383.27
486.50388	8352.12
486.50784	8320.73
486.51181	8302.33
486.51578	8313.17
486.51971	8323.92
486.52368	8334.75
486.52765	8334.5
486.53162	8329.5
486.53555	8324.54
486.53952	8319.9
486.54349	8318.79
486.54742	8317.68
486.55139	8316.57
486.55536	8307.91
486.55933	8291.2
486.56326	8274.63
486.56723	8257.93
486.5712	8295.32
486.57516	8339.76
486.5791	8383.86
486.58307	8404.69
486.58704	8363.86
486.591	8323.03
486.59494	8282.51
486.59891	8264.17
486.60287	8256.94
486.60684	8249.72
486.61078	8241.92
486.61475	8224.42
486.61871	8206.92
486.62268	8189.42
486.62662	8196.3
486.63058	8232.21
486.63455	8268.12
486.63849	8303.75
486.64246	8310.9
486.64642	8313.12
486.65039	8315.34
486.65433	8318.03
486.65829	8322.19
486.66226	8326.36
486.66623	8330.53
486.67017	8347.78
486.67413	8372.51
486.6781	8397.23
486.68207	8421.01
486.686	8421.29
486.68997	8421.56
486.69394	8421.84
486.69791	8412.77
486.70184	8391.5
486.70581	8370.06
486.70978	8348.63
486.71375	8363.46
486.71768	8385.51
486.72165	8407.74
486.72562	8420.85
486.72958	8402.24
486.73352	8383.77
486.73749	8365.16
486.74146	8359.2
486.74539	8361.13
486.74936	8363.07
486.75333	8364.79
486.75729	8337.01
486.76123	8309.44
486.7652	8281.67
486.76917	8270.01
486.77313	8282.54
486.77707	8294.97
486.78104	8307.5
486.785	8313.11
486.78897	8317
486.79291	8320.86
486.79688	8324.64
486.80084	8327.97
486.80481	8331.31
486.80875	8334.62
486.81271	8329.83
486.81668	8319.27
486.82065	8308.72
486.82458	8298.24
486.82855	8271.13
486.83252	8243.63
486.83646	8216.35
486.84042	8186.46
486.84439	8152.5
486.84836	8118.54
486.85229	8084.84
486.85626	8103.28
486.86023	8137.45
486.8642	8171.62
486.86813	8195.2
486.8721	8165.48
486.87607	8135.75
486.88004	8106.03
486.88397	8081.77
486.88794	8061.49
486.89191	8041.21
486.89587	8020.94
486.89981	8017.63
486.90378	8015.13
486.90775	8012.63
486.91171	7994.72
486.91565	7948.03
486.91962	7900.99
486.92358	7853.94
486.92755	7876.2
486.93149	7921.68
486.93546	7967.51
486.93942	8008.46
486.94336	8018.94
486.94733	8029.49
486.95129	8040.05
486.95526	8039.84
486.9592	8030.19
486.96317	8020.47
486.96713	8010.75
486.9711	7985.07
486.97504	7958.28
486.979	7931.28
486.98297	7919.46
486.98694	7939.46
486.99088	7959.31
486.99484	7979.31
486.99881	7981.62
487.00278	7976.9
487.00671	7972.21
487.01068	7971.11
487.01465	8000
487.01862	8028.89
487.02255	8057.56
487.02652	8063.81
487.03049	8047.42
487.03442	8031.15
487.03839	8014.77
487.04236	8023.18
487.04633	8034.6
487.05026	8045.92
487.05423	8064.31
487.0582	8099.59
487.06216	8134.87
487.0661	8169.87
487.07007	8179.48
487.07404	8177.26
487.078	8175.03
487.08194	8174.5
487.08591	8193.94
487.08987	8213.38
487.09384	8232.83
487.09778	8239.87
487.10175	8233.18
487.10571	8226.5
487.10968	8219.82
487.11362	8215.38
487.11758	8211.21
487.12155	8207.04
487.12552	8199.66
487.12946	8183.68
487.13342	8167.56
487.13739	8151.45
487.14133	8139.46
487.14529	8129.46
487.14926	8119.46
487.15323	8109.19
487.15717	8094.27
487.16113	8079.24
487.1651	8064.21
487.16907	8048.94
487.173	8033.5
487.17697	8017.95
487.18094	8002.39
487.18491	7999.77
487.18884	7999.49
487.19281	7999.21
487.19678	7995.09
487.20074	7978.7
487.20468	7962.44
487.20865	7946.05
487.21262	7947.9
487.21658	7960.43
487.22052	7972.86
487.22449	7985
487.22845	7985
487.23239	7985
487.23636	7985
487.24033	7996.16
487.24429	8022.55
487.24823	8048.74
487.2522	8075.13
487.25616	8072.3
487.26013	8062.85
487.26407	8053.48
487.26804	8052.65
487.272	8084.66
487.27597	8116.67
487.27991	8148.44
487.28387	8148.51
487.28784	8127.95
487.29181	8107.4
487.29575	8087
487.29971	8107
487.30368	8127
487.30765	8147
487.31158	8156.17
487.31555	8148.94
487.31952	8141.72
487.32349	8134.5
487.32742	8101.98
487.33139	8062.46
487.33536	8022.93
487.33929	7996.03
487.34326	8023.25
487.34723	8050.47
487.3512	8077.69
487.35513	8070.89
487.3591	8039.5
487.36307	8008.11
487.36703	7976.72
487.37097	8003.73
487.37494	8032.34
487.37891	8060.95
487.38287	8074.37
487.38681	8061.94
487.39078	8049.42
487.39474	8036.89
487.39871	8035.92
487.40265	8038.4
487.40662	8040.9
487.41058	8045.74
487.41455	8062.68
487.41849	8079.5
487.42245	8096.44
487.42642	8123.08
487.43036	8157.26
487.43433	8191.7
487.43829	8226.15
487.44226	8236.17
487.4462	8244.73
487.45016	8253.36
487.45413	8253.23
487.4581	8236.56
487.46204	8220.03
487.466	8203.36
487.46997	8186.9
487.47394	8170.51
487.47787	8154.25
487.48184	8137.63
487.48581	8119.54
487.48978	8101.45
487.49371	8083.49
487.49768	8085.76
487.50165	8106.04
487.50562	8126.32
487.50955	8146.44
487.51352	8123.13
487.51749	8096.18
487.52145	8069.24
487.52539	8041.89
487.52936	8013
487.53333	7984.11
487.53726	7955.44
487.54123	7960
487.5452	7978.37
487.54916	7996.75
487.5531	8013.87
487.55707	8021.92
487.56104	8029.98
487.565	8038.03
487.56894	8042
487.57291	8042
487.57687	8042
487.58084	8042
487.58478	8050.69
487.58875	8060.44
487.59271	8070.18
487.59668	8071.08
487.60062	8051.51
487.60458	8031.79
487.60855	8012.07
487.61252	8007.15
487.61646	8008.81
487.62042	8010.47
487.62439	8010.1
487.62833	7987.77
487.63229	7965.27
487.63626	7942.77
487.64023	7929.41
487.64417	7926.09
487.64813	7922.75
487.6521	7919.41
487.65607	7917.29
487.66	7915.37
487.66397	7913.42
487.66794	7919.33
487.67191	7946.55
487.67584	7973.56
487.67981	8000.79
487.68378	8000.79
487.68774	7986.87
487.69168	7973.06
487.69565	7960.21
487.69962	7963.54
487.70358	7966.87
487.70752	7970.18
487.71149	7985.87
487.71545	8016.42
487.71942	8046.98
487.72336	8077.3
487.72733	8052.56
487.73129	8017.76
487.73523	7983.23
487.7392	7960.15
487.74316	7972.92
487.74713	7985.7
487.75107	7998.38
487.75504	8000.87
487.759	7997.54
487.76297	7994.21
487.76691	7991.98
487.77087	8023.93
487.77484	8055.87
487.77881	8087.82
487.78275	8103.17
487.78671	8096.49
487.79068	8089.81
487.79465	8083.13
487.79858	8063.25
487.80255	8040.47
487.80652	8017.7
487.81049	8014.81
487.81442	8080.69
487.81839	8147.08
487.82236	8213.47
487.82629	8214.81
487.83026	8175
487.83423	8135.19
487.8382	8095.43
487.84213	8058.77
487.8461	8021.83
487.85007	7984.88
487.85403	7942.62
487.85797	7893
487.86194	7843
487.86591	7793
487.86987	7762.73
487.87381	7737.6
487.87778	7712.27
487.88174	7684.22
487.88571	7645.33
487.88965	7606.74
487.89362	7567.85
487.89758	7589.68
487.90155	7653.29
487.90549	7716.41
487.90945	7780.02
487.91342	7763.73
487.91739	7746.19
487.92133	7728.79
487.92529	7710.41
487.92926	7690.69
487.9332	7671.12
487.93716	7651.4
487.94113	7643.98
487.9451	7640.09
487.94904	7636.23
487.953	7630.93
487.95697	7618.68
487.96094	7606.43
487.96487	7594.28
487.96884	7589.47
487.97281	7590.31
487.97678	7591.14
487.98071	7591.97
487.98468	7588.79
487.98865	7585.46
487.99261	7582.13
487.99655	7582.96
488.00052	7591.31
488.00449	7599.66
488.00845	7608.01
488.01239	7618.38
488.01636	7629.49
488.02032	7640.6
488.02426	7653.21
488.02823	7675.15
488.0322	7697.1
488.03616	7719.04
488.0401	7743.09
488.04407	7769.26
488.04803	7795.42
488.052	7821.59
488.05594	7830.3
488.05991	7838.08
488.06387	7845.85
488.06784	7855.89
488.07178	7870.22
488.07574	7884.67
488.07971	7899.11
488.08368	7883.27
488.08762	7856.47
488.09158	7829.47
488.09555	7810.25
488.09952	7842.75
488.10345	7875
488.10742	7907.5
488.11139	7932.73
488.11536	7951.35
488.11929	7969.81
488.12326	7988.43
488.12723	7977.77
488.13116	7964.51
488.13513	7951.15
488.1391	7939.63
488.14307	7932.13
488.147	7924.69
488.15097	7917.19
488.15494	7913.43
488.15891	7911.21
488.16284	7909
488.16681	7904.94
488.17078	7884.34
488.17474	7863.74
488.17868	7843.3
488.18265	7822.44
488.18661	7801.33
488.19058	7780.22
488.19452	7759.27
488.19849	7757.99
488.20245	7759.1
488.20642	7760.21
488.21036	7756.25
488.21432	7739.54
488.21829	7722.84
488.22223	7706.27
488.2262	7712.41
488.23016	7729.08
488.23413	7745.74
488.23807	7757.9
488.24203	7717.62
488.246	7677.35
488.24997	7637.07
488.25391	7633.24
488.25787	7669.99
488.26184	7706.73
488.26581	7743.48
488.26974	7727.96
488.27371	7704.9
488.27768	7681.85
488.28165	7674.37
488.28558	7708.9
488.28955	7743.69
488.29352	7778.49
488.29749	7798.92
488.30142	7812.15
488.30539	7825.49
488.30936	7838.19
488.31332	7841.24
488.31726	7844.28
488.32123	7847.33
488.3252	7849
488.32913	7849
488.3331	7849
488.33707	7849
488.34103	7841.88
488.34497	7833.62
488.34894	7825.28
488.35291	7823.17
488.35687	7840.12
488.36081	7856.93
488.36478	7873.87
488.36874	7858.32
488.37271	7824.36
488.37665	7790.66
488.38062	7757.19
488.38458	7736.08
488.38855	7714.97
488.39249	7694.02
488.39645	7685.6
488.40042	7693.95
488.40439	7702.3
488.40833	7710.59
488.41229	7722.85
488.41626	7735.9
488.4202	7748.86
488.42416	7757.45
488.42813	7750.51
488.4321	7743.56
488.43604	7736.67
488.44	7715.33
488.44397	7684.98
488.44794	7654.64
488.45187	7625.62
488.45584	7666.18
488.45981	7706.73
488.46378	7747.29
488.46771	7778.36
488.47168	7796.42
488.47565	7814.47
488.47961	7832.53
488.48355	7828.87
488.48752	7819.97
488.49149	7811.06
488.49545	7799.33
488.49939	7777
488.50336	7754.5
488.50732	7732
488.51129	7725.84
488.51523	7730.54
488.5192	7735.27
488.52316	7740
488.5271	7738.07
488.53107	7736.13
488.53503	7734.18
488.539	7720.36
488.54294	7688.38
488.54691	7656.16
488.55087	7623.94
488.55484	7630.76
488.55878	7648.16
488.56274	7665.7
488.56671	7678.46
488.57068	7670.13
488.57462	7661.86
488.57858	7653.53
488.58255	7665.58
488.58652	7692.58
488.59045	7719.37
488.59442	7746.38
488.59839	7742.39
488.60236	7737.66
488.60629	7732.98
488.61026	7733.18
488.61423	7741.79
488.61816	7750.34
488.62213	7758.95
488.6261	7734.93
488.63007	7700.69
488.634	7666.71
488.63797	7638.99
488.64194	7645.1
488.6459	7651.21
488.64984	7657.27
488.65381	7674.18
488.65778	7699.79
488.66174	7725.4
488.66568	7750.82
488.66965	7771.08
488.67361	7791.08
488.67758	7811.08
488.68152	7821.5
488.68549	7814.28
488.68945	7807.06
488.69342	7799.83
488.69736	7784.64
488.70132	7766.54
488.70529	7748.45
488.70926	7728.49
488.7132	7697.9
488.71716	7667.06
488.72113	7636.23
488.72507	7633.23
488.72903	7654.39
488.733	7675.54
488.73697	7696.7
488.74091	7695.67
488.74487	7693.17
488.74884	7690.67
488.75281	7686.52
488.75674	7679.08
488.76071	7671.58
488.76468	7664.08
488.76865	7679.71
488.77258	7704.02
488.77655	7728.52
488.78052	7747.61
488.78448	7728.16
488.78842	7708.87
488.79239	7689.42
488.79636	7694.2
488.80032	7721.76
488.80426	7749.11
488.80823	7776.67
488.81219	7809.51
488.81613	7842.59
488.8201	7875.92
488.82407	7895.15
488.82803	7882.62
488.83197	7870.19
488.83594	7857.66
488.8399	7856.75
488.84387	7860.64
488.84781	7864.5
488.85178	7870.61
488.85574	7896.72
488.85971	7922.83
488.86365	7948.74
488.86761	7951.86
488.87158	7931.26
488.87555	7910.66
488.87949	7890.22
488.88345	7881.06
488.88742	7873.28
488.89139	7865.5
488.89532	7849.38
488.89929	7812.08
488.90326	7774.78
488.90723	7737.48
488.91116	7716.87
488.91513	7703.54
488.9191	7690.21
488.92303	7677.25
488.927	7667.51
488.93097	7657.76
488.93494	7648.02
488.93887	7639.69
488.94284	7632.74
488.94681	7625.8
488.95078	7618.85
488.95471	7621.62
488.95868	7625.79
488.96265	7629.96
488.96661	7633.97
488.97055	7637.57
488.97452	7641.18
488.97849	7644.8
488.98245	7630.94
488.98639	7608.62
488.99036	7586.12
488.99432	7564.85
488.99829	7562.34
489.00223	7559.85
489.0062	7557.35
489.01016	7567.28
489.01413	7591.73
489.01807	7615.98
489.02203	7640.43
489.026	7631.88
489.02994	7617.79
489.03391	7603.59
489.03787	7589.05
489.04184	7573.5
489.04578	7558.06
489.04974	7542.5
489.05371	7562.18
489.05768	7601.15
489.06161	7639.83
489.06558	7676.79
489.06955	7672.35
489.07352	7667.91
489.07745	7663.5
489.08142	7666.12
489.08539	7677.78
489.08936	7689.45
489.09329	7701.03
489.09726	7688.2
489.10123	7670.38
489.10519	7652.57
489.10913	7640.41
489.1131	7646.52
489.11707	7652.63
489.121	7658.7
489.12497	7677.13
489.12894	7703.02
489.1329	7728.91
489.13684	7753.66
489.14081	7738.94
489.14478	7724.22
489.14874	7709.49
489.15268	7705.51
489.15665	7716.37
489.16061	7727.22
489.16458	7738.08
489.16852	7748.15
489.17249	7758.15
489.17645	7768.15
489.18042	7774.38
489.18436	7766.92
489.18832	7759.41
489.19229	7751.89
489.19626	7758.91
489.2002	7774.9
489.20416	7791.01
489.20813	7806.87
489.2121	7789.33
489.21603	7771.93
489.22	7754.39
489.22397	7747.96
489.22791	7757.61
489.23187	7767.33
489.23584	7777.06
489.23981	7734.11
489.24374	7678.43
489.24771	7622.32
489.25168	7580.85
489.25565	7600.9
489.25958	7620.79
489.26355	7640.83
489.26752	7651.3
489.27148	7655.19
489.27542	7659.05
489.27939	7662.94
489.28336	7693.42
489.28732	7724.32
489.29126	7754.98
489.29523	7783.29
489.29919	7807.46
489.30316	7831.63
489.3071	7855.61
489.31107	7836.78
489.31503	7805.6
489.31897	7774.66
489.32294	7742.46
489.3269	7705.52
489.33087	7668.57
489.33481	7631.91
489.33878	7610.14
489.34274	7599.84
489.34671	7589.54
489.35065	7579.32
489.35461	7536.46
489.35858	7492.57
489.36255	7448.68
489.36649	7430.06
489.37045	7455.11
489.37442	7480.17
489.37839	7505.22
489.38232	7530.25
489.38629	7555.53
489.39026	7580.81
489.39423	7602.9
489.39816	7608.42
489.40213	7613.99
489.4061	7619.56
489.41006	7610.93
489.414	7591.35
489.41797	7571.63
489.42194	7551.91
489.42587	7567.07
489.42984	7584.05
489.43381	7601.03
489.43777	7617.7
489.44171	7633.69
489.44568	7649.8
489.44965	7665.91
489.45361	7668.34
489.45755	7666.13
489.46152	7663.9
489.46548	7656.56
489.46945	7619.34
489.47339	7582.4
489.47736	7545.18
489.48132	7545.69
489.48529	7578.54
489.48923	7611.13
489.49319	7643.98
489.49716	7624.1
489.50113	7600.77
489.50507	7577.62
489.50903	7569.83
489.513	7593.49
489.51694	7616.97
489.5209	7640.63
489.52487	7640.91
489.52884	7632.58
489.53278	7624.31
489.53674	7615.22
489.54071	7600.74
489.54468	7586.27
489.54861	7571.9
489.55258	7580.11
489.55655	7609
489.56052	7637.89
489.56445	7666.56
489.56842	7698.3
489.57239	7730.32
489.57635	7762.33
489.58029	7771.12
489.58426	7730.29
489.58823	7689.46
489.59219	7648.62
489.59613	7667.14
489.6001	7709.73
489.60406	7752.32
489.60803	7789.36
489.61197	7783.85
489.61594	7778.29
489.6199	7772.73
489.62384	7766.8
489.62781	7760.4
489.63177	7753.99
489.63574	7747.59
489.63968	7732.5
489.64365	7716.39
489.64761	7700.28
489.65158	7674.39
489.65552	7626.04
489.65948	7577.33
489.66345	7528.61
489.66742	7490.47
489.67136	7457.12
489.67532	7423.51
489.67929	7391.07
489.68326	7370.19
489.68719	7349.48
489.69116	7328.6
489.69513	7338.65
489.6991	7380.59
489.70303	7422.22
489.707	7464.16
489.71097	7462.1
489.7149	7454.37
489.71887	7446.58
489.72284	7447.48
489.72681	7470.26
489.73074	7492.86
489.73471	7515.64
489.73868	7520.55
489.74265	7516.93
489.74658	7513.34
489.75055	7508.82
489.75452	7493.55
489.75848	7478.27
489.76242	7463.11
489.76639	7457.35
489.77036	7462.36
489.77432	7467.37
489.77826	7472.34
489.78223	7470.59
489.78619	7467.81
489.79016	7465.03
489.7941	7472.46
489.79807	7508.65
489.80203	7544.84
489.806	7581.03
489.80994	7613.4
489.8139	7644.23
489.81787	7675.06
489.82181	7704.15
489.82578	7706.93
489.82974	7709.72
489.83371	7712.5
489.83765	7723.73
489.84161	7745.16
489.84558	7766.6
489.84955	7788.03
489.85349	7827.76
489.85745	7870.82
489.86142	7913.87
489.86539	7948.33
489.86932	7957.45
489.87329	7966.63
489.87726	7975.82
489.88123	7988.81
489.88516	8003.69
489.88913	8018.69
489.8931	8032.51
489.89706	8021.93
489.901	8011.44
489.90497	8000.86
489.90894	7977.28
489.91287	7937.86
489.91684	7898.14
489.92081	7858.42
489.92477	7820.02
489.92871	7782.18
489.93268	7744.04
489.93665	7712.75
489.94061	7703.3
489.94455	7693.93
489.94852	7684.49
489.95248	7655.01
489.95645	7613.81
489.96039	7572.93
489.96436	7533.79
489.96832	7559.34
489.97229	7584.9
489.97623	7610.26
489.98019	7623.94
489.98416	7621.43
489.98813	7618.93
489.99207	7616.44
489.99603	7616
490	7616
